COUNTER,AF3,F7,F3, FC5, T7, P7, O1, O2,P8, T8, FC6, F4,F8, AF4,GYROX, GYROY, TIMESTAMP, FUNC_ID, FUNC_VALUE, MARKER, SYNC_SIGNAL,
5,4297.95,4242.56,4298.46,4297.95,4297.95,4297.95,4245.13,4287.69,4241.03,4267.18,4259.49,4298.46,4286.15,4243.59,2060,1329,8.938,0,0,0,0,
6,4427.69,4414.36,4428.21,4428.21,4427.69,4427.69,4429.23,4430.26,4407.18,4445.13,4448.72,4428.21,4429.74,4424.1,2059,1331,8.948,0,0,0,0,
7,3134.87,3405.13,3133.85,3133.33,3134.87,3134.87,3346.15,3172.82,3429.74,3212.31,3238.46,3133.33,3172.82,3376.92,2060,1331,8.958,0,0,0,0,
8,1047.69,1708.72,1046.15,1045.64,1047.69,1047.69,1520.51,1155.9,1784.62,1234.36,1253.33,1045.64,1151.79,1618.97,2062,1333,8.968,0,0,0,0,
9,322.564,1249.74,322.051,321.538,322.051,322.051,1024.62,507.179,1338.46,694.872,702.564,321.538,503.077,1145.64,2059,1341,8.978,0,0,0,0,
10,643.59,1649.23,644.103,644.615,643.077,643.59,1460,860,1729.74,1108.21,1133.85,643.59,872.821,1557.95,2057,1347,8.978,0,0,0,0,
11,596.923,1578.46,596.923,597.436,597.436,596.923,1389.74,808.718,1664.1,1012.82,1048.72,595.385,835.897,1475.9,2055,1361,8.988,0,0,0,0,
12,475.897,1442.56,473.846,473.846,476.41,475.897,1239.49,696.41,1528.21,878.974,907.179,472.821,715.897,1333.33,2054,1370,8.998,0,0,0,0,
13,617.949,1601.03,614.872,613.846,616.923,617.436,1408.21,846.667,1678.46,1054.36,1084.1,614.359,862.051,1503.08,2054,1391,9.008,0,0,0,0,
14,654.872,1618.46,651.282,652.821,656.923,656.41,1428.21,875.897,1695.9,1073.33,1102.05,652.308,901.026,1517.95,2053,1409,9.008,0,0,0,0,
15,650.769,1601.54,647.692,646.667,657.949,654.872,1408.21,882.051,1680.51,1073.85,1099.49,647.179,906.154,1495.38,2054,1453,9.018,0,0,0,0,
16,657.949,1612.82,656.41,648.718,660.513,658.462,1423.59,890.256,1694.87,1084.62,1113.85,648.205,901.026,1511.28,2062,1481,9.028,0,0,0,0,
17,662.051,1597.95,661.538,657.436,658.462,658.462,1419.49,891.282,1684.1,1075.38,1106.15,651.282,900,1503.08,2082,1568,9.038,0,0,0,0,
18,660.513,1605.13,658.974,662.051,658.462,657.436,1429.23,898.974,1690.26,1088.72,1123.59,652.308,921.026,1511.79,2091,1632,9.048,0,0,0,0,
19,660,1602.56,658.974,657.436,660,657.949,1419.49,907.179,1687.18,1092.31,1124.1,654.359,936.923,1507.69,2106,1775,9.048,0,0,0,0,
20,661.026,1601.54,661.026,654.359,658.974,657.949,1414.87,909.231,1687.18,1091.28,1124.62,658.462,918.462,1506.15,2123,1845,9.058,0,0,0,0,
21,661.026,1604.62,661.026,656.923,658.462,657.949,1420,914.872,1687.18,1094.87,1132.82,661.026,906.667,1514.36,2119,1910,9.068,0,0,0,0,
22,660.513,1608.21,660,655.385,659.487,657.949,1424.1,921.538,1688.72,1106.15,1148.72,658.974,923.077,1530.26,2137,2071,9.078,0,0,0,0,
23,661.026,1604.62,660.513,654.872,660.513,657.949,1423.59,923.077,1689.74,1115.38,1163.08,658.974,915.385,1541.54,2145,2128,9.088,0,0,0,0,
24,660.513,1600,660,658.974,659.487,657.949,1422.05,921.026,1689.23,1122.56,1175.38,661.026,884.615,1548.72,2136,2171,9.088,0,0,0,0,
25,659.487,1604.1,660,661.538,659.487,657.949,1421.03,922.051,1689.23,1126.67,1174.87,660.513,888.205,1549.23,2135,2201,9.098,0,0,0,0,
26,658.462,1603.08,660,660.513,660.513,657.949,1418.46,931.282,1689.23,1124.1,1162.56,660,908.205,1536.92,2103,2212,9.108,0,0,0,0,
27,661.026,1592.31,660,660,661.026,657.949,1409.74,931.282,1689.23,1124.1,1151.28,660.513,897.436,1521.54,2076,2188,9.118,0,0,0,0,
28,660.513,1583.59,660,660.513,660.513,657.436,1398.97,920,1687.18,1124.62,1142.56,660,889.744,1511.28,2033,2127,9.128,0,0,0,0,
29,660.513,1585.13,660,660,660.513,657.436,1392.82,922.051,1687.69,1123.59,1150.26,660,903.59,1516.92,2024,2120,9.128,0,0,0,0,
30,680.513,1592.31,660,659.487,660.513,657.949,1398.46,942.051,1687.69,1131.28,1166.15,660,905.128,1544.1,2026,2147,9.138,0,0,0,0,
31,711.795,1600,660,660,660.513,656.923,1409.23,954.872,1687.18,1140.51,1174.36,660,898.974,1577.44,2028,2260,9.148,0,0,0,0,
32,710.256,1606.15,660,660,660.513,655.897,1413.33,951.282,1695.38,1140.51,1181.54,660,918.462,1597.44,2028,2332,9.158,0,0,0,0,
33,675.897,1607.69,660,660,660.513,659.487,1419.49,952.308,1705.64,1145.13,1186.15,660,959.487,1590.26,2038,2513,9.158,0,0,0,0,
34,649.231,1611.79,660,660,660.513,661.538,1429.74,962.564,1704.62,1156.41,1177.95,660,996.41,1559.49,2035,2573,9.168,0,0,0,0,
35,644.103,1626.15,660,660,660.513,664.103,1445.64,975.897,1703.08,1162.05,1171.79,660,1028.72,1559.49,1987,2346,9.178,0,0,0,0,
36,682.564,1640,660,660,660.513,670.769,1447.69,987.179,1711.28,1162.05,1183.59,660,1046.15,1617.95,1996,2205,9.188,0,0,0,0,
37,777.949,1647.69,660,660,660.513,680.513,1451.79,1009.23,1717.44,1153.85,1214.36,660,1033.85,1691.28,2031,1971,9.198,0,0,0,0,
38,913.333,1671.28,660,659.487,660.513,716.41,1533.33,1074.36,1733.33,1162.56,1237.44,660,1037.95,1800.51,2043,1941,9.198,0,0,0,0,
39,1070.26,1680,660.513,659.487,660.513,757.949,1576.41,1108.21,1746.15,1191.79,1234.36,660,1025.64,1895.9,2056,1940,9.208,0,0,0,0,
40,1117.44,1634.87,660,660,660,740.513,1495.9,1060.51,1730.77,1182.56,1256.41,660,933.846,1818.97,2066,1964,9.218,0,0,0,0,
41,924.615,1591.28,660,659.487,661.538,698.974,1509.74,1076.41,1724.1,1154.87,1278.97,660,892.308,1648.72,2071,1982,9.228,0,0,0,0,
42,684.615,1600,662.564,660,664.615,689.231,1600.51,1137.44,1741.54,1176.41,1236.92,660.513,1002.56,1594.87,2054,2016,9.238,0,0,0,0,
43,636.41,1617.95,664.103,662.051,666.154,681.538,1508.72,1057.44,1744.62,1211.28,1207.69,660,1118.97,1620,2043,2022,9.243,0,0,0,0,
44,671.795,1621.03,663.077,663.59,665.641,671.795,1361.54,933.333,1725.13,1203.08,1246.15,659.487,1131.79,1626.67,2035,2044,9.247,0,0,0,0,
45,653.333,1635.38,663.077,663.59,665.641,683.59,1370.26,965.128,1711.79,1188.21,1266.15,662.564,1105.64,1682.56,2041,2046,9.26,0,0,0,0,
46,644.103,1644.62,663.59,663.59,665.641,691.795,1395.9,1053.85,1702.05,1184.62,1245.64,665.128,1071.28,1753.33,2056,2009,9.26,0,0,0,0,
47,662.051,1628.21,663.59,663.59,665.641,697.949,1389.23,1074.87,1697.44,1181.03,1246.15,664.103,1024.1,1715.9,2060,1980,9.27,0,0,0,0,
48,664.615,1605.64,663.59,663.59,665.641,720.513,1435.38,1058.97,1711.28,1193.85,1253.33,663.077,995.385,1608.72,2053,1975,9.28,0,0,0,0,
49,663.077,1602.05,663.59,663.59,665.641,732.308,1474.36,1031.79,1726.15,1214.36,1246.15,664.615,991.795,1551.28,2054,1994,9.29,0,0,0,0,
50,664.103,1617.95,663.59,663.59,665.641,733.333,1480,1019.49,1729.23,1218.97,1233.33,664.615,1004.1,1577.44,2059,2016,9.3,0,0,0,0,
51,662.564,1625.13,663.59,663.59,665.641,745.128,1477.44,1037.95,1715.9,1209.74,1221.03,664.103,1022.05,1618.97,2051,2046,9.3,0,0,0,0,
52,663.077,1624.62,663.59,663.59,665.641,755.385,1462.05,1067.69,1704.1,1199.49,1221.03,664.615,1040,1628.72,2040,2045,9.31,0,0,0,0,
53,663.077,1631.28,663.59,663.59,665.641,760.513,1448.21,1081.54,1703.08,1196.92,1227.69,664.615,1054.87,1616.41,2027,2033,9.32,0,0,0,0,
54,663.59,1632.82,663.59,663.59,665.641,768.718,1447.69,1070.26,1703.08,1204.62,1240,664.103,1059.49,1598.97,2030,2026,9.33,0,0,0,0,
55,663.59,1623.59,663.59,663.59,665.641,769.744,1455.9,1056.41,1709.23,1221.03,1255.9,664.103,1032.82,1582.56,2044,2019,9.34,0,0,0,0,
56,663.59,1622.56,663.59,663.59,665.641,771.795,1466.15,1050.26,1722.05,1233.33,1259.49,664.103,993.846,1578.97,2051,2023,9.34,0,0,0,0,
57,663.59,1629.23,663.59,663.59,665.641,782.051,1470.77,1050.26,1722.56,1232.82,1251.79,664.615,1005.13,1583.08,2055,2025,9.35,0,0,0,0,
58,663.59,1629.23,663.59,663.59,665.641,790.256,1471.28,1059.49,1708.21,1226.15,1249.23,664.615,1064.1,1576.92,2052,2025,9.36,0,0,0,0,
59,663.59,1631.79,663.59,663.59,665.641,797.436,1471.28,1074.87,1703.08,1224.1,1252.31,664.103,1096.41,1568.21,2046,2019,9.37,0,0,0,0,
60,663.59,1638.97,663.59,663.59,665.641,803.077,1470.77,1090.26,1706.67,1229.23,1254.87,664.103,1087.69,1569.23,2046,2017,9.38,0,0,0,0,
61,663.59,1640.51,663.59,663.59,665.641,805.128,1471.79,1095.9,1705.13,1235.9,1260.51,664.103,1073.85,1568.72,2045,2017,9.38,0,0,0,0,
62,663.59,1639.49,663.59,663.59,665.641,811.795,1483.08,1085.13,1711.79,1242.56,1269.74,664.615,1061.03,1575.9,2046,2017,9.39,0,0,0,0,
63,663.59,1640,663.59,663.59,665.641,820.513,1496.41,1073.33,1720.51,1249.23,1272.82,664.615,1044.62,1592.82,2047,2018,9.4,0,0,0,0,
64,663.59,1641.03,664.103,663.59,665.641,824.615,1492.82,1077.95,1721.03,1250.77,1271.79,664.103,1047.18,1599.49,2047,2021,9.41,0,0,0,0,
65,663.077,1643.59,664.615,664.103,665.641,830.256,1484.62,1093.33,1721.54,1249.74,1271.79,664.103,1075.38,1597.44,2047,2022,9.41,0,0,0,0,
66,663.59,1645.64,664.615,664.615,665.641,838.974,1485.13,1113.33,1714.36,1249.23,1272.82,664.103,1097.95,1594.87,2046,2025,9.42,0,0,0,0,
67,663.077,1644.1,664.615,664.615,665.641,845.641,1489.23,1124.1,1704.1,1248.72,1274.87,664.615,1087.18,1588.21,2047,2026,9.43,0,0,0,0,
68,662.564,1641.54,664.615,664.615,665.641,852.821,1496.92,1115.9,1711.28,1256.92,1278.97,664.615,1077.44,1577.95,2046,2025,9.443,0,0,0,0,
69,664.615,1644.62,664.615,664.615,665.641,853.333,1508.21,1103.59,1724.1,1269.74,1282.56,664.103,1091.28,1576.92,2045,2024,9.451,0,0,0,0,
70,666.667,1653.33,664.615,664.615,665.641,856.41,1509.23,1105.64,1722.05,1270.26,1286.15,664.103,1095.38,1584.1,2044,2023,9.459,0,0,0,0,
71,668.718,1657.44,664.615,664.615,665.641,868.718,1502.05,1118.46,1719.49,1265.64,1292.31,664.103,1090.26,1593.33,2046,2021,9.467,0,0,0,0,
72,671.795,1654.87,664.615,664.615,665.641,873.333,1498.97,1134.87,1723.08,1270.26,1291.79,664.615,1103.08,1603.08,2047,2021,9.471,0,0,0,0,
73,677.436,1653.85,664.615,664.615,665.641,875.385,1502.56,1142.56,1722.05,1273.85,1289.23,664.615,1114.87,1605.64,2049,2019,9.479,0,0,0,0,
74,684.103,1655.38,664.615,664.103,665.641,885.641,1511.28,1131.79,1720.51,1277.95,1296.92,664.103,1109.23,1601.03,2049,2018,9.487,0,0,0,0,
75,691.282,1654.87,664.103,664.103,665.641,890.256,1519.49,1123.59,1722.05,1285.13,1304.62,664.103,1110.77,1594.36,2050,2020,9.496,0,0,0,0,
76,701.026,1654.87,664.103,664.615,665.641,888.205,1519.49,1132.82,1723.59,1287.69,1302.56,664.103,1125.13,1589.23,2049,2022,9.506,0,0,0,0,
77,707.692,1655.9,664.103,664.103,665.641,896.41,1515.38,1146.67,1723.08,1286.15,1302.05,664.615,1133.33,1595.9,2044,2023,9.506,0,0,0,0,
78,707.692,1655.9,664.615,664.103,665.641,905.128,1516.92,1154.87,1722.56,1289.74,1305.13,664.103,1134.36,1607.69,2043,2023,9.516,0,0,0,0,
79,706.667,1657.44,665.128,665.641,665.641,905.128,1519.49,1157.95,1722.05,1290.26,1307.18,664.103,1136.41,1611.28,2042,2021,9.526,0,0,0,0,
80,712.308,1658.46,667.692,666.154,665.641,913.846,1518.46,1157.44,1721.54,1292.31,1313.33,665.128,1140.51,1610.26,2043,2023,9.536,0,0,0,0,
81,722.051,1664.62,672.821,665.641,665.641,924.615,1525.64,1155.9,1729.74,1302.05,1320.51,666.154,1139.49,1613.85,2045,2023,9.536,0,0,0,0,
82,731.282,1671.79,676.41,665.128,665.641,920.513,1531.79,1160,1738.97,1307.69,1320.51,665.641,1138.46,1613.85,2048,2022,9.546,0,0,0,0,
83,745.128,1673.33,684.615,665.128,665.641,917.949,1526.67,1167.69,1736.92,1306.67,1322.05,665.128,1148.72,1610.26,2048,2019,9.556,0,0,0,0,
84,755.385,1671.28,691.282,665.128,665.641,932.308,1518.97,1174.36,1735.38,1305.13,1323.08,665.128,1162.05,1610.77,2049,2019,9.566,0,0,0,0,
85,754.872,1672.31,693.333,665.128,665.641,940.513,1524.1,1178.97,1738.97,1306.15,1322.56,665.128,1166.15,1611.28,2048,2019,9.576,0,0,0,0,
86,758.462,1672.31,700,665.128,665.641,935.385,1531.79,1182.05,1738.97,1313.85,1329.74,665.128,1164.62,1610.26,2046,2020,9.576,0,0,0,0,
87,770.769,1671.28,709.744,665.128,665.128,940.513,1534.36,1183.59,1736.92,1322.05,1336.41,665.128,1167.18,1613.85,2045,2023,9.586,0,0,0,0,
88,772.308,1671.79,713.846,664.615,665.641,953.333,1537.95,1184.62,1736.92,1322.05,1335.38,665.128,1169.74,1622.05,2044,2022,9.596,0,0,0,0,
89,769.744,1673.33,721.538,665.128,665.641,954.872,1541.54,1189.74,1737.44,1319.49,1336.92,665.128,1168.21,1627.18,2044,2024,9.606,0,0,0,0,
90,782.051,1674.36,734.359,667.692,665.128,951.795,1538.46,1197.44,1737.95,1325.64,1339.49,665.128,1172.82,1625.64,2046,2022,9.616,0,0,0,0,
91,788.718,1673.33,740,671.282,666.154,963.59,1532.82,1203.08,1739.49,1333.85,1343.08,664.615,1184.1,1623.08,2048,2022,9.616,0,0,0,0,
92,785.128,1673.85,746.154,674.872,668.718,972.308,1539.49,1204.1,1738.97,1334.87,1349.74,666.667,1188.72,1623.59,2047,2022,9.626,0,0,0,0,
93,791.795,1675.9,752.821,675.385,668.718,968.205,1550.26,1205.13,1737.44,1334.36,1352.82,669.744,1189.23,1622.56,2046,2022,9.636,0,0,0,0,
94,803.59,1674.36,758.974,674.359,666.667,974.359,1550.77,1211.79,1743.08,1337.95,1352.31,669.744,1196.41,1621.54,2046,2023,9.646,0,0,0,0,
95,811.282,1677.95,767.692,678.462,666.154,986.154,1549.74,1217.95,1751.79,1338.97,1353.33,668.718,1202.05,1623.59,2046,2022,9.656,0,0,0,0,
96,819.487,1687.69,770.256,685.641,667.179,985.128,1551.28,1223.08,1752.31,1338.97,1355.9,669.231,1201.03,1633.85,2046,2021,9.656,0,0,0,0,
97,822.051,1690.26,776.41,693.333,666.154,985.641,1551.79,1226.15,1749.74,1347.69,1362.56,668.718,1202.56,1643.08,2046,2022,9.666,0,0,0,0,
98,818.974,1686.15,787.179,701.026,666.154,1000,1554.87,1226.67,1752.82,1353.85,1368.72,667.692,1207.18,1643.59,2047,2022,9.676,0,0,0,0,
99,824.615,1687.69,790.769,707.179,668.205,1004.1,1557.44,1230.26,1754.36,1351.79,1367.18,667.692,1212.31,1642.05,2047,2023,9.686,0,0,0,0,
100,833.846,1691.28,790.256,715.897,668.205,1000,1555.9,1236.41,1752.82,1351.79,1366.67,668.205,1218.46,1642.05,2046,2022,9.686,0,0,0,0,
101,842.564,1689.74,798.974,720.513,670.769,1007.18,1560,1240.51,1752.82,1356.92,1369.23,667.692,1223.08,1643.59,2046,2020,9.696,0,0,0,0,
102,851.282,1688.21,808.718,724.103,675.897,1015.9,1567.18,1241.54,1754.36,1365.13,1370.77,667.692,1226.15,1642.05,2047,2021,9.706,0,0,0,0,
103,852.821,1690.26,816.923,732.308,676.41,1014.36,1566.67,1242.56,1753.85,1367.69,1376.41,668.718,1231.79,1640,2046,2021,9.716,0,0,0,0,
104,856.923,1688.21,821.026,742.051,674.359,1016.41,1565.13,1248.21,1753.85,1367.69,1383.08,669.231,1238.97,1647.69,2044,2020,9.726,0,0,0,0,
105,867.179,1688.21,819.487,747.179,677.436,1026.15,1568.21,1254.87,1753.33,1368.72,1384.1,669.744,1241.54,1657.44,2045,2022,9.726,0,0,0,0,
106,869.231,1699.49,827.692,753.333,682.564,1031.79,1568.72,1257.44,1754.87,1370.77,1385.13,669.744,1245.13,1656.92,2045,2022,9.736,0,0,0,0,
107,866.154,1707.69,835.385,765.128,685.641,1034.87,1566.15,1262.56,1755.9,1375.38,1385.64,668.718,1250.26,1654.87,2045,2021,9.746,0,0,0,0,
108,873.846,1703.08,837.949,769.231,694.359,1041.03,1565.13,1267.69,1753.85,1383.08,1384.62,670.256,1249.23,1657.44,2047,2021,9.756,0,0,0,0,
109,886.667,1700,845.641,771.795,703.59,1045.13,1570.26,1267.69,1757.95,1385.64,1391.79,674.359,1250.26,1656.92,2047,2023,9.766,0,0,0,0,
110,888.205,1705.13,852.821,781.026,708.205,1046.67,1577.95,1268.21,1766.15,1384.1,1400,676.41,1255.38,1653.85,2046,2021,9.766,0,0,0,0,
111,889.744,1707.18,857.436,786.667,714.359,1051.28,1582.05,1272.31,1767.69,1383.08,1400.51,675.385,1258.97,1655.9,2046,2022,9.776,0,0,0,0,
112,900.513,1705.64,865.641,791.282,723.59,1059.49,1582.05,1279.49,1765.64,1388.72,1400,675.897,1263.59,1660,2045,2022,9.786,0,0,0,0,
113,906.154,1706.15,869.744,800.513,731.282,1062.05,1582.56,1288.21,1767.69,1398.97,1400.51,676.41,1272.31,1658.46,2045,2024,9.796,0,0,0,0,
114,907.692,1706.67,868.718,803.59,738.462,1064.62,1582.05,1288.72,1769.23,1401.54,1403.08,676.41,1272.82,1661.03,2046,2024,9.796,0,0,0,0,
115,917.436,1705.64,878.974,804.103,748.718,1072.31,1583.59,1285.64,1768.72,1399.49,1410.26,676.923,1271.28,1670.26,2047,2022,9.806,0,0,0,0,
116,924.103,1704.1,888.205,814.872,754.872,1076.92,1590.77,1294.87,1770.26,1401.54,1415.9,678.974,1281.54,1674.36,2047,2022,9.816,0,0,0,0,
117,919.487,1707.18,890.256,821.026,762.051,1075.9,1594.87,1304.62,1770.77,1403.59,1415.38,683.077,1288.21,1670.77,2048,2023,9.826,0,0,0,0,
118,925.128,1709.74,900,825.128,768.718,1081.54,1591.79,1302.56,1770.26,1408.21,1415.38,687.179,1287.69,1671.28,2049,2024,9.836,0,0,0,0,
119,934.872,1707.18,907.179,835.385,772.308,1091.28,1591.28,1302.56,1771.28,1416.41,1417.95,694.872,1290.77,1672.82,2047,2023,9.836,0,0,0,0,
120,936.41,1711.79,902.564,835.897,780,1092.31,1595.38,1306.15,1771.79,1417.95,1424.1,703.077,1296.92,1673.85,2046,2021,9.846,0,0,0,0,
121,945.128,1720.51,907.179,840,787.692,1092.31,1598.46,1307.69,1769.23,1414.87,1431.79,707.692,1301.54,1673.85,2045,2021,9.856,0,0,0,0,
122,952.821,1721.54,919.487,851.282,795.897,1102.05,1600.51,1313.85,1771.79,1419.49,1431.79,714.872,1304.62,1672.82,2046,2021,9.866,0,0,0,0,
123,954.359,1719.49,922.564,853.333,801.026,1110.26,1603.08,1321.54,1781.03,1426.67,1430.77,720.513,1306.15,1681.03,2047,2020,9.876,0,0,0,0,
124,963.077,1721.54,927.692,855.385,806.667,1109.74,1602.05,1320,1786.67,1429.74,1431.79,725.128,1307.18,1689.23,2045,2023,9.876,0,0,0,0,
125,971.282,1721.03,937.436,866.154,813.333,1110.77,1604.1,1322.05,1785.64,1431.28,1431.79,733.333,1314.36,1687.18,2046,2022,9.886,0,0,0,0,
126,969.744,1719.49,936.41,869.231,817.949,1117.95,1608.21,1332.82,1783.08,1432.31,1437.44,741.538,1321.54,1685.64,2046,2022,9.896,0,0,0,0,
127,975.897,1721.54,939.487,873.846,824.103,1124.1,1609.74,1336.92,1784.1,1433.33,1446.15,748.205,1320.51,1687.69,2045,2022,9.906,0,0,0,0,
128,987.179,1723.59,951.795,885.641,834.359,1123.59,1610.26,1333.85,1786.67,1436.92,1447.18,753.333,1320.51,1687.69,2046,2021,9.916,0,0,0,0,
0,986.154,1721.54,954.872,887.179,836.923,1122.56,1610.77,1335.38,1789.23,1445.13,1447.18,756.923,1329.23,1687.18,2045,2020,9.916,0,0,0,0,
1,983.59,1720.51,959.487,890.256,835.385,1132.82,1613.85,1344.1,1788.72,1449.23,1448.72,763.59,1337.44,1690.26,2045,2020,9.926,0,0,0,0,
2,991.282,1729.23,970.769,903.59,844.615,1142.56,1621.03,1350.77,1787.69,1448.21,1449.23,770.769,1335.9,1691.79,2046,2021,9.936,0,0,0,0,
3,1000,1739.49,970.769,906.154,852.308,1141.03,1622.56,1351.79,1789.74,1448.72,1454.87,774.872,1334.87,1689.74,2047,2020,9.946,0,0,0,0,
4,1003.08,1738.97,972.821,904.103,858.974,1143.08,1621.03,1352.31,1791.28,1448.72,1463.08,780,1344.1,1692.31,2047,2022,9.946,0,0,0,0,
5,1006.15,1735.9,984.103,915.385,869.231,1154.36,1623.59,1355.9,1791.79,1449.74,1464.1,789.231,1351.28,1701.54,2047,2021,9.956,0,0,0,0,
6,1014.36,1737.44,985.641,922.564,868.205,1158.97,1625.64,1363.08,1796.41,1454.36,1463.59,797.949,1350.26,1705.13,2048,2023,9.966,0,0,0,0,
7,1017.95,1738.46,986.154,921.538,871.282,1154.87,1626.67,1369.23,1800.51,1462.05,1466.15,804.103,1352.31,1702.56,2047,2023,9.976,0,0,0,0,
8,1018.46,1737.44,997.949,931.795,886.667,1157.95,1628.72,1369.74,1799.49,1465.64,1466.15,801.026,1354.87,1702.56,2047,2023,9.986,0,0,0,0,
9,1025.64,1737.95,1003.08,938.462,890.769,1167.69,1631.79,1366.15,1796.41,1465.13,1465.64,803.077,1354.87,1704.1,2047,2024,9.986,0,0,0,0,
10,1033.85,1737.95,1003.59,937.436,891.282,1173.33,1637.95,1371.28,1796.92,1466.67,1468.21,816.923,1362.05,1705.13,2046,2022,9.996,0,0,0,0,
11,1039.49,1737.95,1012.31,946.667,902.051,1171.28,1641.54,1380.51,1798.46,1473.85,1472.82,820,1369.23,1704.1,2045,2022,10.006,0,0,0,0,
12,1043.59,1741.03,1017.44,954.872,907.179,1173.33,1640,1385.13,1801.03,1480.51,1480.51,821.538,1368.21,1705.64,2046,2022,10.016,0,0,0,0,
13,1046.67,1743.08,1017.95,955.897,912.821,1184.1,1639.49,1385.13,1804.62,1481.54,1486.15,833.846,1374.36,1713.85,2047,2023,10.026,0,0,0,0,
14,1053.85,1743.59,1025.64,964.615,921.538,1189.74,1640.51,1384.62,1806.67,1478.46,1484.62,836.923,1385.64,1720.51,2047,2024,10.026,0,0,0,0,
15,1061.03,1748.72,1033.85,971.282,921.026,1189.23,1642.56,1390.77,1806.67,1480,1484.62,835.385,1386.15,1718.97,2046,2022,10.036,0,0,0,0,
16,1060,1754.36,1037.95,968.205,924.103,1193.33,1645.64,1398.46,1808.21,1486.15,1490.77,847.179,1382.05,1717.44,2046,2021,10.046,0,0,0,0,
17,1064.62,1753.85,1043.08,972.821,937.436,1200,1642.05,1400.51,1808.21,1486.67,1493.33,854.359,1384.62,1720,2046,2023,10.056,0,0,0,0,
18,1076.41,1753.85,1047.18,982.564,938.974,1203.59,1642.56,1400,1806.67,1486.67,1491.79,852.308,1392.82,1722.05,2046,2023,10.056,0,0,0,0,
19,1078.97,1754.36,1052.31,985.128,939.487,1207.18,1654.36,1400.51,1810.77,1497.44,1497.95,862.564,1400.51,1721.54,2045,2022,10.066,0,0,0,0,
20,1075.38,1752.31,1058.46,992.308,949.744,1210.77,1658.97,1402.56,1811.79,1504.1,1504.62,871.282,1404.62,1722.56,2046,2023,10.076,0,0,0,0,
21,1080.51,1752.82,1060,1001.03,954.359,1213.33,1652.31,1409.74,1809.23,1499.49,1501.54,868.205,1403.08,1722.56,2046,2021,10.086,0,0,0,0,
22,1091.28,1756.92,1065.13,1001.54,959.487,1217.95,1650.77,1417.95,1813.33,1497.95,1500.51,871.795,1401.03,1721.03,2046,2020,10.096,0,0,0,0,
23,1096.41,1756.92,1075.38,1005.13,968.718,1222.05,1654.87,1415.38,1816.92,1503.08,1507.18,886.154,1406.15,1727.18,2046,2023,10.096,0,0,0,0,
24,1098.97,1754.36,1077.44,1013.85,972.308,1226.15,1657.95,1413.85,1815.38,1510.77,1514.87,889.744,1415.38,1734.36,2046,2021,10.106,0,0,0,0,
25,1105.64,1757.44,1078.97,1019.49,977.949,1231.28,1666.67,1424.1,1815.38,1517.44,1518.46,887.692,1418.97,1732.31,2045,2023,10.116,0,0,0,0,
26,1109.23,1766.15,1088.21,1024.1,986.154,1235.38,1673.33,1431.79,1818.46,1517.44,1519.49,896.41,1414.87,1733.33,2046,2023,10.126,0,0,0,0,
27,1108.72,1769.23,1092.31,1028.72,986.154,1240,1670.77,1431.79,1820.51,1515.9,1520.51,907.179,1416.92,1738.46,2047,2022,10.136,0,0,0,0,
28,1116.92,1767.69,1092.82,1029.74,990.256,1242.05,1669.23,1432.31,1825.13,1517.95,1522.05,906.154,1427.18,1737.95,2046,2023,10.136,0,0,0,0,
29,1126.15,1769.23,1101.54,1038.46,1000,1244.1,1673.33,1434.36,1825.13,1521.03,1524.1,903.077,1434.87,1737.44,2046,2023,10.146,0,0,0,0,
30,1123.08,1771.28,1109.74,1046.15,1003.08,1250.26,1674.36,1438.46,1822.05,1523.59,1528.72,911.795,1432.82,1737.44,2047,2024,10.156,0,0,0,0,
31,1125.64,1771.79,1110.26,1045.64,1008.21,1255.9,1671.28,1445.13,1825.64,1529.23,1533.85,923.59,1430.26,1738.46,2046,2022,10.166,0,0,0,0,
32,1136.92,1771.79,1113.33,1051.79,1015.9,1257.44,1672.82,1449.74,1830.77,1533.85,1534.87,932.821,1437.44,1747.18,2047,2023,10.176,0,0,0,0,
33,1140,1770.77,1120,1060,1019.49,1260,1674.87,1449.23,1832.82,1534.87,1533.33,938.974,1446.15,1751.79,2048,2023,10.176,0,0,0,0,
34,1139.49,1775.38,1124.1,1061.54,1025.13,1266.15,1678.97,1449.23,1831.28,1534.36,1533.33,936.41,1448.72,1750.26,2048,2023,10.186,0,0,0,0,
35,1147.18,1783.59,1131.79,1067.18,1029.74,1271.79,1686.15,1454.36,1830.26,1535.9,1535.9,936.41,1448.72,1751.28,2047,2023,10.196,0,0,0,0,
36,1154.87,1785.13,1141.03,1075.38,1034.36,1273.33,1689.23,1460,1833.33,1538.97,1541.54,948.718,1447.69,1752.82,2047,2021,10.206,0,0,0,0,
37,1156.41,1782.05,1140.51,1079.49,1042.56,1273.33,1687.69,1463.59,1838.46,1545.13,1549.23,955.897,1452.82,1752.31,2047,2022,10.206,0,0,0,0,
38,1159.49,1783.59,1137.44,1086.67,1046.15,1280.51,1687.69,1465.13,1840.51,1550.77,1551.28,952.308,1460.51,1753.85,2047,2022,10.216,0,0,0,0,
39,1166.15,1786.67,1148.21,1093.33,1050.77,1289.74,1690.26,1469.23,1838.46,1549.74,1548.72,960,1465.13,1756.41,2047,2024,10.226,0,0,0,0,
40,1171.79,1786.67,1158.46,1091.79,1061.54,1289.23,1689.23,1478.46,1838.46,1550.26,1550.26,971.795,1466.67,1755.38,2046,2023,10.236,0,0,0,0,
41,1172.82,1785.64,1156.92,1091.79,1062.56,1290.26,1688.72,1482.56,1840.51,1553.85,1555.9,969.744,1468.72,1753.33,2046,2022,10.246,0,0,0,0,
42,1176.92,1787.69,1161.03,1101.03,1062.05,1300.51,1694.36,1480,1841.54,1555.38,1556.41,969.744,1472.82,1758.46,2047,2023,10.246,0,0,0,0,
43,1186.67,1790.77,1170.26,1107.69,1074.36,1306.67,1702.56,1483.08,1839.49,1557.95,1555.38,982.564,1474.87,1768.72,2046,2023,10.256,0,0,0,0,
44,1190.77,1792.31,1172.82,1109.74,1080,1304.62,1705.13,1486.15,1839.49,1564.1,1562.56,987.692,1478.46,1769.23,2046,2022,10.266,0,0,0,0,
45,1192.31,1795.38,1175.9,1117.95,1080,1304.1,1704.1,1486.15,1846.67,1567.69,1568.72,986.667,1484.1,1767.18,2047,2021,10.276,0,0,0,0,
46,1198.97,1798.97,1184.62,1126.15,1089.74,1310.77,1705.64,1493.85,1852.82,1571.28,1568.21,994.359,1487.69,1770.77,2046,2023,10.286,0,0,0,0,
47,1203.08,1798.46,1188.72,1125.64,1093.33,1320,1704.62,1502.56,1853.33,1571.28,1567.69,1003.08,1486.67,1770.77,2046,2023,10.286,0,0,0,0,
48,1201.03,1798.46,1189.74,1126.67,1093.33,1321.54,1704.62,1502.05,1853.85,1569.74,1570.77,1001.54,1488.72,1767.69,2045,2023,10.296,0,0,0,0,
49,1206.67,1803.59,1193.85,1137.44,1103.59,1318.97,1708.21,1501.54,1854.87,1576.41,1578.97,1004.1,1498.46,1769.74,2046,2023,10.306,0,0,0,0,
50,1216.92,1805.13,1198.46,1140.51,1110.77,1325.64,1705.64,1504.62,1854.36,1583.59,1585.13,1013.33,1503.08,1773.33,2046,2022,10.316,0,0,0,0,
51,1218.46,1800.51,1205.64,1141.54,1113.33,1335.38,1705.64,1508.21,1855.38,1583.08,1583.59,1017.44,1500.51,1770.26,2047,2023,10.316,0,0,0,0,
52,1219.49,1803.08,1210.77,1152.82,1123.08,1336.92,1717.44,1512.82,1856.92,1585.64,1581.03,1021.54,1501.54,1770.77,2047,2023,10.326,0,0,0,0,
53,1225.13,1808.21,1212.82,1159.49,1127.18,1334.87,1723.59,1517.44,1854.87,1588.72,1585.13,1027.69,1506.15,1781.54,2047,2023,10.336,0,0,0,0,
54,1230.26,1807.69,1218.97,1155.38,1125.13,1340,1720,1517.95,1855.9,1588.21,1587.69,1032.31,1510.77,1787.69,2046,2024,10.346,0,0,0,0,
55,1236.92,1809.23,1225.13,1158.46,1133.85,1349.74,1720.51,1516.41,1861.54,1590.77,1586.67,1039.49,1515.38,1785.64,2046,2022,10.356,0,0,0,0,
56,1243.08,1815.38,1227.18,1169.74,1142.05,1352.31,1723.08,1522.56,1864.1,1597.44,1591.28,1045.64,1519.49,1783.59,2046,2022,10.356,0,0,0,0,
57,1246.15,1816.41,1232.31,1175.38,1141.03,1351.28,1721.54,1532.82,1864.1,1601.03,1598.46,1044.1,1520,1785.13,2046,2024,10.366,0,0,0,0,
58,1247.69,1814.87,1237.95,1178.46,1146.67,1352.31,1722.05,1533.85,1868.72,1602.05,1600,1044.1,1520.51,1789.74,2046,2025,10.376,0,0,0,0,
59,1250.77,1815.38,1240.51,1184.1,1156.92,1356.92,1724.62,1532.82,1872.31,1603.59,1597.95,1053.33,1527.18,1793.33,2046,2023,10.386,0,0,0,0,
60,1255.9,1816.41,1245.64,1187.18,1157.95,1364.62,1730.77,1534.87,1870.26,1607.69,1601.54,1061.03,1533.85,1791.79,2046,2021,10.396,0,0,0,0,
61,1262.05,1819.49,1252.82,1190.26,1161.54,1368.72,1737.95,1535.38,1870.26,1609.74,1610.26,1060.51,1534.36,1794.87,2047,2023,10.396,0,0,0,0,
62,1267.18,1824.62,1255.38,1197.95,1172.31,1367.69,1738.46,1536.92,1872.31,1609.23,1609.74,1063.59,1534.87,1801.03,2046,2023,10.406,0,0,0,0,
63,1271.79,1825.13,1256.92,1202.56,1172.82,1374.36,1737.95,1547.18,1871.79,1613.85,1610.26,1074.87,1541.54,1800.51,2046,2021,10.416,0,0,0,0,
64,1273.85,1823.59,1260,1201.54,1172.31,1384.1,1740,1551.28,1871.79,1621.54,1620,1080.51,1547.69,1800,2046,2020,10.426,0,0,0,0,
65,1275.38,1825.64,1270.26,1206.15,1182.56,1384.62,1741.54,1548.21,1871.28,1622.56,1622.05,1076.41,1546.67,1802.05,2048,2023,10.436,0,0,0,0,
66,1283.59,1831.28,1276.41,1215.38,1190.26,1383.08,1740,1551.28,1875.38,1621.03,1616.41,1081.03,1546.67,1803.59,2045,2022,10.436,0,0,0,0,
67,1289.23,1833.85,1272.82,1219.49,1190.26,1384.62,1738.97,1556.92,1883.08,1624.1,1620.51,1092.82,1551.28,1806.67,2046,2023,10.446,0,0,0,0,
68,1288.21,1831.28,1277.44,1222.05,1196.41,1389.23,1743.59,1560.51,1885.13,1624.62,1627.18,1094.36,1554.36,1809.23,2045,2023,10.456,0,0,0,0,
69,1294.36,1831.79,1289.74,1229.74,1204.62,1397.95,1752.31,1563.59,1883.59,1625.64,1624.62,1092.31,1555.9,1807.18,2047,2022,10.466,0,0,0,0,
70,1303.59,1837.95,1290.77,1233.85,1207.18,1401.54,1754.87,1567.69,1883.59,1634.87,1625.64,1101.54,1563.08,1810.26,2046,2023,10.466,0,0,0,0,
71,1304.62,1838.46,1290.77,1236.41,1208.72,1398.46,1751.28,1570.77,1883.59,1641.03,1635.38,1112.31,1568.72,1816.92,2045,2022,10.476,0,0,0,0,
72,1303.08,1836.92,1302.05,1240.51,1215.9,1405.13,1752.82,1571.79,1884.1,1638.97,1640.51,1110.77,1567.18,1814.87,2046,2022,10.486,0,0,0,0,
73,1306.67,1840.51,1307.18,1244.62,1222.56,1416.41,1755.38,1570.77,1887.18,1640,1638.97,1111.28,1566.67,1813.33,2046,2022,10.496,0,0,0,0,
74,1313.85,1841.54,1304.62,1253.33,1226.15,1417.44,1754.87,1574.87,1887.18,1641.03,1638.46,1122.05,1571.28,1818.46,2045,2022,10.506,0,0,0,0,
75,1321.03,1838.97,1310.77,1258.46,1229.74,1414.36,1758.97,1581.03,1887.69,1640,1642.05,1127.18,1576.92,1820.51,2046,2022,10.506,0,0,0,0,
76,1320.51,1843.59,1320.51,1256.92,1233.85,1415.9,1764.1,1582.05,1890.77,1647.69,1641.54,1123.59,1580.51,1819.49,2046,2022,10.516,0,0,0,0,
77,1319.49,1849.74,1321.03,1262.05,1239.49,1422.05,1766.15,1586.15,1892.82,1656.92,1644.1,1125.13,1583.08,1823.08,2046,2022,10.526,0,0,0,0,
78,1329.23,1847.18,1318.97,1272.31,1246.15,1431.28,1769.23,1592.31,1896.41,1655.38,1653.33,1135.9,1585.13,1828.21,2048,2023,10.536,0,0,0,0,
79,1338.97,1845.64,1326.15,1272.31,1250.77,1435.38,1770.26,1595.38,1902.05,1654.87,1655.9,1141.54,1588.72,1828.21,2047,2021,10.546,0,0,0,0,
80,1337.44,1851.28,1335.9,1272.82,1253.33,1433.33,1769.23,1598.46,1901.54,1657.95,1655.9,1139.49,1593.33,1828.21,2046,2022,10.546,0,0,0,0,
81,1337.95,1854.36,1336.92,1284.62,1256.41,1436.41,1770.77,1600,1898.46,1657.44,1656.92,1145.64,1598.46,1830.26,2046,2022,10.556,0,0,0,0,
82,1347.69,1853.33,1335.9,1288.72,1261.54,1445.64,1771.28,1598.97,1901.54,1661.54,1657.44,1156.92,1600.51,1834.36,2046,2023,10.566,0,0,0,0,
83,1354.36,1856.41,1344.1,1286.67,1269.23,1450.26,1772.31,1603.59,1904.1,1672.31,1664.1,1158.46,1599.49,1837.44,2046,2022,10.576,0,0,0,0,
84,1351.28,1856.92,1353.85,1294.87,1273.33,1448.21,1780,1610.26,1902.56,1674.36,1673.33,1157.95,1603.08,1837.44,2046,2022,10.586,0,0,0,0,
85,1353.85,1853.33,1353.85,1305.13,1272.31,1447.18,1784.1,1609.23,1902.05,1671.28,1672.31,1167.69,1608.72,1838.46,2046,2023,10.586,0,0,0,0,
86,1364.1,1860,1353.85,1305.13,1281.03,1452.31,1782.56,1613.33,1905.13,1671.79,1668.21,1172.82,1609.74,1840,2046,2022,10.596,0,0,0,0,
87,1369.74,1871.28,1362.05,1303.59,1292.31,1461.54,1785.64,1621.54,1909.74,1671.79,1672.31,1170.26,1614.36,1840,2046,2021,10.606,0,0,0,0,
88,1367.69,1871.79,1370.77,1310.77,1289.74,1465.64,1787.18,1625.13,1909.23,1678.46,1675.9,1172.82,1622.56,1842.05,2046,2022,10.616,0,0,0,0,
89,1369.23,1867.69,1372.82,1320,1291.79,1464.1,1786.15,1623.59,1908.72,1687.69,1674.36,1180.51,1625.64,1846.67,2046,2021,10.616,0,0,0,0,
90,1377.95,1870.26,1369.23,1320,1303.59,1465.64,1788.72,1625.64,1913.85,1688.72,1673.85,1186.15,1623.59,1848.21,2046,2023,10.626,0,0,0,0,
91,1385.64,1871.79,1371.28,1319.49,1306.15,1472.31,1790.77,1633.33,1918.46,1687.18,1680.51,1187.69,1623.59,1848.21,2046,2022,10.636,0,0,0,0,
92,1384.62,1869.74,1381.54,1327.69,1303.59,1477.95,1794.36,1640,1916.41,1690.26,1689.23,1188.21,1624.1,1852.31,2046,2022,10.646,0,0,0,0,
93,1383.08,1869.74,1386.67,1337.44,1311.79,1481.03,1798.46,1639.49,1914.87,1689.23,1688.72,1191.79,1627.69,1854.36,2045,2023,10.656,0,0,0,0,
94,1392.31,1872.31,1384.1,1336.92,1322.05,1485.64,1800.51,1638.46,1916.92,1688.72,1687.69,1200,1636.41,1854.36,2046,2024,10.656,0,0,0,0,
95,1401.03,1871.79,1389.23,1335.9,1321.03,1489.23,1803.59,1642.05,1918.97,1698.97,1690.26,1204.1,1638.97,1856.92,2045,2023,10.666,0,0,0,0,
96,1399.49,1870.77,1400,1342.05,1318.97,1487.69,1807.18,1642.05,1918.97,1706.15,1689.74,1203.59,1638.46,1854.87,2046,2023,10.676,0,0,0,0,
97,1401.54,1877.44,1401.54,1350.77,1327.18,1490.26,1807.69,1643.59,1921.54,1704.1,1695.38,1210.77,1643.08,1853.85,2046,2020,10.686,0,0,0,0,
98,1410.26,1884.62,1401.54,1353.33,1338.46,1498.97,1806.67,1652.31,1926.67,1703.59,1704.62,1217.44,1643.59,1863.08,2046,2022,10.696,0,0,0,0,
99,1415.9,1885.64,1408.21,1352.31,1337.95,1504.62,1807.69,1656.92,1928.72,1707.18,1704.62,1218.97,1643.59,1871.28,2046,2021,10.696,0,0,0,0,
100,1415.9,1885.13,1415.38,1360.51,1336.41,1503.08,1810.26,1656.92,1929.74,1705.64,1703.08,1221.54,1652.31,1869.23,2046,2021,10.706,0,0,0,0,
101,1417.44,1887.18,1415.38,1369.74,1345.64,1502.56,1814.36,1655.38,1932.31,1706.67,1706.67,1227.18,1658.46,1867.69,2046,2022,10.716,0,0,0,0,
102,1424.1,1888.21,1415.38,1367.18,1354.36,1509.23,1816.92,1658.46,1932.82,1716.41,1706.15,1230.77,1656.41,1870.26,2046,2022,10.726,0,0,0,0,
103,1431.79,1888.21,1423.08,1368.72,1351.79,1516.92,1816.41,1668.21,1930.26,1721.54,1704.1,1234.87,1658.46,1871.79,2046,2024,10.726,0,0,0,0,
104,1432.31,1887.18,1430.26,1380,1354.36,1520,1816.92,1674.36,1930.77,1720.51,1712.31,1240,1660,1870.26,2047,2024,10.736,0,0,0,0,
105,1430.26,1890.26,1431.28,1386.15,1366.15,1518.97,1820,1671.28,1933.33,1722.05,1721.54,1241.54,1663.08,1873.85,2046,2021,10.746,0,0,0,0,
106,1432.31,1898.46,1431.79,1382.56,1370.26,1522.56,1823.59,1671.79,1933.33,1722.05,1721.03,1244.1,1670.77,1877.44,2046,2024,10.756,0,0,0,0,
107,1440,1901.54,1438.46,1384.62,1367.69,1530.77,1822.56,1674.87,1936.92,1721.03,1718.97,1248.72,1673.85,1876.41,2046,2023,10.766,0,0,0,0,
108,1447.18,1898.97,1448.21,1395.38,1375.38,1534.36,1822.56,1673.85,1943.59,1729.23,1720.51,1254.36,1673.85,1880,2046,2020,10.766,0,0,0,0,
109,1449.23,1898.97,1450.26,1402.56,1385.13,1533.85,1828.72,1681.03,1946.15,1738.46,1723.59,1257.44,1678.46,1886.15,2046,2022,10.776,0,0,0,0,
110,1450.26,1901.03,1447.69,1400.51,1384.1,1535.9,1831.79,1689.74,1946.67,1737.95,1721.54,1258.97,1684.1,1886.67,2047,2023,10.786,0,0,0,0,
111,1458.97,1902.05,1454.36,1402.05,1383.59,1537.95,1832.31,1688.21,1948.72,1736.41,1720.51,1266.15,1687.69,1885.64,2046,2023,10.796,0,0,0,0,
112,1465.13,1902.56,1464.62,1411.79,1394.87,1543.08,1838.46,1688.21,1949.23,1738.97,1729.23,1273.85,1688.21,1886.67,2046,2023,10.806,0,0,0,0,
113,1464.1,1904.1,1465.13,1417.44,1402.56,1548.72,1840,1690.26,1947.69,1739.49,1738.97,1273.33,1689.23,1887.69,2046,2023,10.806,0,0,0,0,
114,1465.64,1905.13,1462.05,1415.38,1398.97,1550.77,1838.46,1689.74,1948.21,1737.95,1737.44,1272.82,1689.74,1888.72,2046,2022,10.816,0,0,0,0,
115,1472.31,1909.23,1467.18,1416.92,1401.03,1552.31,1840.51,1695.9,1949.23,1744.1,1735.9,1281.03,1689.23,1892.31,2045,2022,10.826,0,0,0,0,
116,1478.97,1915.38,1476.41,1426.15,1413.33,1556.41,1839.49,1706.15,1949.74,1752.31,1740,1287.69,1695.38,1896.92,2046,2023,10.836,0,0,0,0,
117,1481.54,1918.46,1479.49,1433.33,1421.03,1562.05,1841.54,1706.67,1949.23,1752.82,1738.46,1288.72,1705.13,1898.46,2046,2022,10.846,0,0,0,0,
118,1482.56,1917.44,1480.51,1431.79,1417.44,1565.13,1849.74,1704.62,1952.31,1752.82,1739.49,1289.74,1706.15,1896.41,2045,2021,10.846,0,0,0,0,
119,1486.67,1916.92,1484.1,1434.36,1414.36,1567.18,1849.23,1704.1,1960,1755.38,1750.77,1294.87,1704.1,1899.49,2046,2021,10.856,0,0,0,0,
120,1490.26,1918.46,1488.72,1444.1,1422.56,1568.21,1848.21,1705.13,1962.05,1757.95,1755.38,1301.54,1705.13,1904.1,2046,2021,10.866,0,0,0,0,
121,1491.28,1918.97,1494.36,1449.23,1433.33,1571.28,1854.87,1713.33,1959.49,1763.59,1751.79,1304.1,1710.26,1902.05,2047,2025,10.876,0,0,0,0,
122,1496.92,1919.49,1501.03,1447.18,1433.33,1576.41,1856.41,1722.05,1962.05,1769.74,1753.85,1305.64,1717.95,1902.05,2047,2023,10.876,0,0,0,0,
123,1503.08,1919.49,1504.1,1449.74,1430.26,1580,1855.38,1721.54,1966.67,1769.23,1756.41,1306.15,1722.05,1904.62,2045,2021,10.886,0,0,0,0,
124,1502.05,1921.03,1504.1,1455.9,1438.46,1582.05,1856.41,1720.51,1965.13,1768.72,1754.36,1309.74,1719.49,1904.62,2045,2022,10.896,0,0,0,0,
125,1505.13,1924.62,1506.67,1462.05,1448.72,1585.13,1857.44,1721.54,1963.59,1769.74,1758.97,1317.95,1721.03,1910.26,2046,2021,10.906,0,0,0,0,
126,1515.38,1926.15,1513.33,1464.62,1449.23,1587.18,1864.1,1722.05,1965.64,1770.26,1767.69,1322.56,1722.56,1917.44,2046,2022,10.916,0,0,0,0,
127,1520.51,1929.23,1518.97,1465.64,1449.23,1587.69,1871.28,1728.21,1965.13,1770.77,1770.26,1320,1721.54,1916.92,2047,2022,10.916,0,0,0,0,
128,1517.95,1933.33,1518.46,1470.26,1457.95,1596.92,1869.74,1737.95,1968.21,1775.38,1769.23,1325.64,1727.18,1915.38,2046,2022,10.926,0,0,0,0,
0,1520,1932.31,1517.44,1477.95,1466.15,1606.67,1869.23,1737.95,1976.92,1783.08,1770.77,1335.38,1735.9,1917.95,2046,2023,10.936,0,0,0,0,
1,1528.72,1929.74,1525.64,1481.54,1464.1,1605.13,1871.28,1736.92,1980,1787.18,1772.31,1337.44,1737.95,1919.49,2046,2023,10.946,0,0,0,0,
2,1535.38,1934.87,1535.9,1482.05,1464.1,1604.1,1872.82,1739.49,1978.46,1786.67,1769.74,1335.9,1736.92,1917.44,2046,2023,10.956,0,0,0,0,
3,1534.36,1936.41,1536.41,1484.62,1473.33,1609.23,1870.77,1739.49,1980.51,1786.15,1769.74,1337.44,1738.46,1917.95,2046,2024,10.956,0,0,0,0,
4,1531.28,1935.38,1535.38,1487.18,1478.97,1612.31,1870.26,1743.59,1981.54,1787.18,1776.92,1344.62,1738.46,1922.05,2046,2023,10.966,0,0,0,0,
5,1537.44,1942.56,1542.05,1492.31,1481.54,1613.85,1878.46,1753.33,1980,1788.72,1784.62,1351.28,1741.03,1927.18,2046,2022,10.976,0,0,0,0,
6,1547.18,1949.23,1550.77,1501.03,1485.13,1614.87,1885.13,1756.41,1981.03,1792.82,1785.13,1354.36,1749.74,1931.79,2048,2022,10.986,0,0,0,0,
7,1550.26,1949.23,1550.77,1503.08,1486.67,1618.97,1882.05,1753.85,1982.56,1797.95,1786.15,1353.33,1755.38,1933.33,2046,2022,10.986,0,0,0,0,
8,1552.31,1947.69,1549.23,1503.08,1488.21,1625.13,1882.05,1754.36,1983.59,1799.49,1790.26,1354.36,1754.87,1932.82,2045,2023,10.996,0,0,0,0,
9,1554.36,1948.21,1557.44,1512.31,1495.9,1625.64,1886.67,1755.38,1982.56,1800.51,1791.79,1361.03,1752.31,1932.82,2046,2023,11.006,0,0,0,0,
10,1556.41,1949.23,1566.15,1520,1502.05,1629.23,1887.69,1758.97,1982.05,1805.13,1795.38,1367.69,1756.41,1933.85,2046,2023,11.016,0,0,0,0,
11,1562.05,1948.72,1566.15,1518.97,1501.54,1638.46,1888.21,1767.18,1989.23,1808.21,1798.97,1369.74,1764.62,1936.41,2047,2022,11.026,0,0,0,0,
12,1567.69,1951.28,1565.13,1517.44,1507.69,1641.03,1888.21,1770.77,1995.9,1809.74,1800,1366.67,1767.18,1937.95,2046,2022,11.026,0,0,0,0,
13,1567.18,1957.95,1568.72,1522.05,1516.92,1640,1890.26,1769.74,1994.36,1813.33,1805.13,1370.26,1767.69,1940.51,2046,2023,11.036,0,0,0,0,
14,1567.18,1962.05,1571.28,1529.74,1518.97,1640,1898.46,1770.77,1993.33,1816.41,1809.74,1379.49,1771.28,1945.13,2046,2020,11.046,0,0,0,0,
15,1574.36,1963.08,1575.38,1533.85,1518.46,1644.62,1902.56,1773.33,1997.95,1818.46,1806.15,1385.13,1770.26,1948.21,2047,2023,11.056,0,0,0,0,
16,1581.03,1965.64,1583.59,1533.85,1522.05,1654.36,1900,1774.36,1997.44,1823.08,1806.67,1385.64,1771.28,1949.23,2046,2023,11.066,0,0,0,0,
17,1583.59,1965.64,1585.64,1534.36,1528.72,1657.95,1900.51,1780.51,1995.9,1824.62,1814.87,1383.59,1781.03,1949.23,2047,2023,11.066,0,0,0,0,
18,1584.62,1963.59,1584.62,1541.54,1532.82,1654.87,1902.05,1786.67,1997.95,1822.05,1818.97,1387.69,1786.67,1950.77,2047,2022,11.076,0,0,0,0,
19,1587.18,1965.64,1592.31,1548.21,1535.38,1656.41,1904.1,1785.64,1997.44,1825.13,1819.49,1396.92,1783.59,1952.82,2047,2021,11.086,0,0,0,0,
20,1592.82,1967.69,1597.95,1550.77,1536.92,1658.46,1907.18,1786.15,1998.97,1830.77,1821.03,1402.05,1785.13,1953.85,2047,2023,11.096,0,0,0,0,
21,1596.92,1966.15,1597.44,1551.28,1540,1662.56,1907.69,1789.74,2006.15,1832.31,1823.08,1399.49,1789.74,1953.85,2046,2023,11.106,0,0,0,0,
22,1599.49,1965.64,1601.03,1557.95,1545.13,1671.28,1910.26,1793.85,2010.26,1834.87,1822.56,1400,1791.28,1953.85,2046,2021,11.106,0,0,0,0,
23,1603.08,1969.74,1606.67,1566.15,1549.74,1673.85,1916.41,1797.95,2008.72,1838.97,1825.13,1409.74,1793.85,1955.9,2046,2022,11.116,0,0,0,0,
24,1607.18,1976.41,1609.74,1567.69,1551.28,1672.31,1917.95,1801.54,2009.23,1841.03,1829.74,1416.41,1797.44,1961.03,2046,2023,11.126,0,0,0,0,
25,1609.74,1980,1613.33,1568.21,1556.41,1673.85,1915.9,1801.54,2012.31,1840.51,1832.31,1415.9,1800,1964.62,2046,2023,11.136,0,0,0,0,
26,1613.33,1980.51,1616.92,1570.26,1565.13,1677.95,1917.44,1804.1,2014.36,1841.03,1834.87,1416.92,1806.15,1964.1,2046,2022,11.136,0,0,0,0,
27,1618.46,1981.03,1622.05,1574.87,1567.69,1684.1,1920,1808.21,2013.85,1843.59,1838.97,1416.92,1808.72,1966.15,2047,2022,11.146,0,0,0,0,
28,1621.03,1982.05,1624.62,1580.51,1566.15,1688.72,1921.54,1811.79,2014.36,1849.74,1841.54,1418.97,1804.62,1967.18,2046,2022,11.156,0,0,0,0,
29,1623.59,1981.54,1627.18,1583.08,1569.23,1689.74,1923.59,1814.36,2014.87,1855.38,1838.97,1427.18,1808.21,1966.15,2046,2021,11.166,0,0,0,0,
30,1625.64,1982.56,1635.38,1584.62,1575.9,1687.69,1925.64,1814.87,2013.85,1855.9,1839.49,1432.82,1815.9,1971.79,2047,2021,11.176,0,0,0,0,
31,1630.26,1983.59,1641.03,1588.72,1580.51,1690.26,1930.26,1818.46,2019.49,1856.92,1845.13,1433.33,1815.38,1978.46,2047,2021,11.176,0,0,0,0,
32,1638.97,1982.05,1639.49,1592.31,1583.08,1700,1933.85,1824.1,2027.69,1855.9,1848.21,1435.9,1817.44,1979.49,2047,2022,11.186,0,0,0,0,
33,1642.56,1983.59,1638.46,1595.9,1585.64,1706.67,1932.31,1824.1,2027.18,1855.38,1848.21,1438.46,1825.13,1978.97,2047,2022,11.196,0,0,0,0,
34,1639.49,1990.77,1641.03,1603.59,1588.21,1704.62,1931.79,1822.56,2026.67,1863.08,1851.28,1442.05,1824.1,1980.51,2046,2021,11.206,0,0,0,0,
35,1638.46,1994.87,1649.23,1609.74,1589.23,1704.1,1934.36,1825.64,2030.26,1870.77,1856.92,1447.69,1823.08,1982.56,2046,2023,11.216,0,0,0,0,
36,1646.67,1994.36,1656.92,1608.21,1596.41,1706.15,1936.41,1832.31,2030.77,1868.21,1855.38,1450.26,1829.23,1981.03,2045,2023,11.216,0,0,0,0,
37,1654.87,1994.87,1656.41,1606.15,1604.62,1708.21,1940.51,1837.95,2029.74,1867.69,1856.41,1450.26,1832.82,1980.51,2045,2024,11.226,0,0,0,0,
38,1657.95,1995.9,1656.41,1613.33,1605.13,1716.92,1945.64,1840,2029.23,1872.31,1864.62,1454.36,1835.9,1984.62,2046,2023,11.236,0,0,0,0,
39,1656.92,1998.46,1660,1624.1,1606.67,1722.56,1947.69,1839.49,2029.23,1871.79,1867.18,1462.05,1840.51,1989.74,2046,2022,11.246,0,0,0,0,
40,1655.9,1999.49,1662.56,1626.67,1611.79,1721.03,1949.23,1840,2033.85,1874.36,1866.15,1466.15,1840,1990.26,2048,2021,11.254,0,0,0,0,
41,1661.54,1996.92,1667.69,1622.56,1616.41,1722.05,1950.26,1842.56,2040,1883.59,1869.74,1465.13,1839.49,1991.79,2047,2024,11.262,0,0,0,0,
42,1670.26,2002.56,1673.85,1625.64,1621.54,1721.54,1950.77,1846.15,2041.03,1884.62,1872.82,1464.62,1844.1,1994.87,2047,2022,11.266,0,0,0,0,
43,1673.85,2010.77,1673.85,1636.41,1625.64,1723.08,1950.26,1849.23,2041.03,1883.59,1871.79,1468.72,1847.69,1997.44,2046,2024,11.276,0,0,0,0,
44,1672.31,2011.28,1672.31,1641.54,1625.13,1732.82,1950.77,1852.82,2043.59,1886.67,1871.28,1475.38,1850.26,1998.46,2046,2022,11.286,0,0,0,0,
45,1671.79,2009.74,1679.49,1640.51,1626.15,1737.95,1955.38,1856.41,2045.64,1888.21,1872.82,1479.49,1854.87,1995.9,2046,2020,11.286,0,0,0,0,
46,1677.44,2011.28,1687.69,1638.97,1632.82,1736.41,1960.51,1854.87,2045.64,1888.21,1880,1480.51,1856.92,1997.44,2045,2022,11.296,0,0,0,0,
47,1686.15,2013.85,1688.72,1641.54,1638.97,1737.95,1962.05,1856.92,2047.18,1893.33,1886.67,1483.59,1855.9,2007.18,2046,2024,11.306,0,0,0,0,
48,1689.23,2014.36,1688.21,1649.23,1642.05,1739.49,1964.1,1864.62,2046.67,1898.97,1885.13,1486.67,1857.44,2010.77,2046,2022,11.316,0,0,0,0,
49,1687.18,2013.33,1690.26,1656.41,1639.49,1743.59,1964.62,1867.18,2045.64,1901.03,1886.15,1487.18,1863.59,2007.69,2045,2023,11.326,0,0,0,0,
50,1687.18,2013.85,1692.31,1657.44,1642.56,1752.82,1964.62,1865.13,2050.26,1901.54,1890.77,1491.79,1869.23,2008.72,2046,2021,11.326,0,0,0,0,
51,1693.33,2021.03,1695.9,1655.38,1652.31,1754.36,1965.64,1869.74,2056.41,1901.54,1888.21,1500.51,1872.31,2012.82,2047,2023,11.336,0,0,0,0,
52,1702.05,2025.13,1704.62,1657.95,1658.97,1750.26,1966.67,1873.85,2055.38,1904.62,1888.72,1502.05,1870.77,2013.33,2047,2023,11.346,0,0,0,0,
53,1706.15,2024.62,1708.72,1664.62,1656.92,1752.31,1971.28,1871.79,2055.38,1908.21,1896.92,1501.03,1869.74,2013.33,2046,2021,11.356,0,0,0,0,
54,1704.1,2027.18,1705.13,1671.28,1654.87,1755.9,1977.44,1876.41,2061.54,1910.26,1900.51,1503.08,1875.9,2015.38,2046,2024,11.36,0,0,0,0,
55,1705.64,2030.26,1706.15,1675.9,1662.05,1760,1977.95,1885.13,2062.56,1913.85,1901.03,1504.62,1883.08,2013.85,2046,2022,11.37,0,0,0,0,
56,1707.18,2030.26,1716.41,1672.31,1672.31,1768.21,1977.95,1886.15,2061.54,1916.92,1902.56,1509.74,1885.13,2013.85,2046,2022,11.381,0,0,0,0,
57,1709.23,2028.72,1724.62,1672.82,1674.87,1771.79,1982.05,1882.05,2065.13,1916.92,1903.59,1516.92,1885.64,2021.03,2046,2024,11.381,0,0,0,0,
58,1717.95,2029.23,1721.54,1683.08,1670.77,1768.72,1982.05,1883.08,2068.72,1915.38,1905.13,1518.46,1886.67,2026.15,2046,2023,11.391,0,0,0,0,
59,1723.08,2030.77,1721.03,1690.26,1676.41,1772.31,1982.56,1888.72,2068.21,1917.95,1910.26,1517.44,1888.72,2023.59,2046,2024,11.401,0,0,0,0,
60,1721.03,2030.77,1730.77,1690.26,1687.69,1782.56,1983.08,1888.21,2066.15,1921.54,1915.9,1519.49,1888.72,2023.59,2046,2021,11.41,0,0,0,0,
61,1721.03,2032.31,1737.44,1688.21,1689.74,1785.13,1981.03,1888.72,2067.18,1925.64,1917.44,1522.56,1890.77,2027.18,2047,2020,11.421,0,0,0,0,
62,1729.23,2038.46,1736.41,1690.77,1688.72,1783.08,1985.64,1895.9,2071.28,1930.77,1916.92,1527.18,1896.41,2029.23,2046,2021,11.421,0,0,0,0,
63,1737.95,2043.08,1737.95,1698.46,1688.72,1784.1,1994.87,1902.05,2073.85,1932.31,1916.92,1532.31,1902.05,2030.26,2046,2023,11.43,0,0,0,0,
64,1736.41,2043.08,1738.97,1704.62,1693.85,1786.67,1997.44,1900.51,2071.79,1931.79,1919.49,1535.38,1903.08,2030.26,2046,2022,11.441,0,0,0,0,
65,1734.36,2043.08,1738.97,1705.64,1702.05,1788.72,1996.41,1901.03,2072.31,1933.85,1920.51,1534.87,1903.59,2031.28,2046,2023,11.451,0,0,0,0,
66,1737.44,2045.64,1746.15,1704.62,1705.64,1791.28,1996.41,1905.13,2079.49,1934.87,1923.08,1536.41,1904.1,2037.44,2046,2023,11.46,0,0,0,0,
67,1738.97,2047.18,1754.87,1706.67,1705.64,1796.92,1997.95,1908.72,2084.1,1937.95,1929.74,1544.1,1906.67,2040,2047,2022,11.468,0,0,0,0,
68,1745.13,2046.67,1754.87,1711.79,1706.15,1801.54,1998.97,1913.33,2083.08,1944.1,1932.82,1551.28,1914.36,2040,2046,2021,11.476,0,0,0,0,
69,1755.38,2047.69,1750.77,1720,1706.67,1802.56,1997.95,1916.92,2083.08,1945.64,1931.79,1550.26,1917.95,2041.03,2045,2022,11.484,0,0,0,0,
70,1756.41,2053.33,1755.38,1723.59,1711.79,1803.08,2000.51,1917.44,2087.18,1946.15,1932.31,1549.74,1915.9,2044.1,2045,2022,11.492,0,0,0,0,
71,1751.28,2056.92,1765.64,1721.03,1722.05,1808.72,2008.21,1916.41,2087.69,1948.72,1933.33,1552.82,1918.46,2047.18,2047,2023,11.5,0,0,0,0,
72,1754.87,2056.41,1770.26,1722.05,1722.05,1813.85,2009.74,1919.49,2087.18,1949.23,1934.36,1556.41,1920,2046.15,2047,2022,11.508,0,0,0,0,
73,1765.64,2057.95,1767.18,1727.69,1721.54,1815.38,2008.72,1925.13,2089.74,1949.74,1942.05,1562.05,1917.95,2045.13,2046,2023,11.508,0,0,0,0,
74,1770.26,2061.54,1769.23,1735.9,1732.31,1819.49,2012.31,1926.15,2089.23,1950.26,1948.72,1567.18,1923.59,2048.72,2046,2023,11.518,0,0,0,0,
75,1769.23,2062.56,1777.44,1740,1739.49,1823.59,2014.36,1926.67,2087.69,1950.77,1948.21,1566.67,1934.36,2053.85,2046,2023,11.528,0,0,0,0,
76,1769.23,2062.05,1778.97,1736.92,1737.95,1824.1,2014.87,1932.31,2093.85,1957.44,1946.67,1566.67,1932.31,2056.41,2046,2022,11.538,0,0,0,0,
77,1770.26,2062.56,1780.51,1736.92,1736.92,1822.56,2014.36,1934.36,2100.51,1963.59,1949.74,1569.74,1927.69,2058.46,2047,2022,11.538,0,0,0,0,
78,1769.74,2063.59,1785.64,1745.64,1736.92,1828.21,2014.87,1933.33,2099.49,1963.59,1949.74,1572.31,1934.36,2056.92,2046,2022,11.548,0,0,0,0,
79,1776.41,2066.15,1787.69,1753.33,1742.56,1832.82,2022.05,1933.33,2098.97,1964.1,1949.23,1577.44,1936.41,2057.95,2047,2021,11.558,0,0,0,0,
80,1784.62,2070.77,1787.69,1754.36,1752.31,1830.26,2027.18,1935.9,2102.56,1965.64,1955.38,1583.59,1935.38,2061.03,2046,2022,11.568,0,0,0,0,
81,1786.15,2072.31,1792.82,1752.31,1753.85,1834.87,2025.64,1942.05,2105.13,1964.62,1963.08,1583.59,1943.59,2060.51,2047,2022,11.578,0,0,0,0,
82,1787.69,2071.79,1799.49,1751.28,1752.82,1841.54,2027.18,1947.69,2105.64,1968.21,1964.62,1582.05,1949.23,2061.03,2045,2023,11.578,0,0,0,0,
83,1790.77,2074.36,1800.51,1757.44,1753.85,1840,2030.77,1948.21,2104.1,1975.38,1963.59,1585.64,1944.1,2065.13,2046,2024,11.588,0,0,0,0,
84,1795.38,2078.97,1800.51,1768.72,1754.36,1839.49,2031.28,1947.18,2105.13,1978.97,1964.62,1590.77,1946.15,2070.26,2046,2023,11.598,0,0,0,0,
85,1798.46,2083.08,1803.08,1772.82,1760.51,1847.69,2030.77,1948.21,2111.28,1980,1966.15,1593.33,1951.79,2072.31,2046,2022,11.608,0,0,0,0,
86,1800.51,2084.1,1807.69,1769.74,1769.74,1852.31,2030.77,1955.38,2115.9,1982.05,1965.13,1596.92,1951.28,2071.79,2047,2022,11.618,0,0,0,0,
87,1804.62,2082.56,1811.79,1770.26,1771.79,1853.85,2035.38,1962.56,2114.87,1983.08,1965.13,1599.49,1955.38,2070.77,2045,2022,11.618,0,0,0,0,
88,1806.67,2084.1,1816.92,1773.85,1769.23,1856.41,2042.56,1961.03,2113.33,1980,1973.85,1600.51,1962.56,2074.36,2046,2023,11.628,0,0,0,0,
89,1809.23,2086.15,1823.59,1780,1771.28,1856.41,2043.08,1962.56,2115.9,1984.62,1980.51,1605.13,1963.08,2077.95,2047,2024,11.638,0,0,0,0,
90,1813.33,2087.18,1823.59,1786.15,1778.97,1858.46,2040.51,1966.67,2119.49,1994.87,1977.95,1609.23,1964.1,2076.92,2046,2023,11.648,0,0,0,0,
91,1816.41,2088.72,1822.56,1785.64,1785.64,1865.13,2043.08,1965.13,2119.49,1996.41,1978.46,1609.74,1965.64,2081.54,2047,2024,11.648,0,0,0,0,
92,1818.46,2087.18,1827.18,1785.13,1786.67,1868.72,2046.15,1969.23,2117.95,1993.85,1984.1,1611.28,1965.13,2087.18,2045,2024,11.658,0,0,0,0,
93,1823.08,2088.72,1830.77,1789.74,1786.15,1869.74,2046.67,1977.95,2121.03,1995.9,1982.05,1613.85,1970.26,2083.08,2046,2023,11.668,0,0,0,0,
94,1823.08,2097.44,1833.33,1796.41,1790.26,1870.26,2047.69,1977.44,2121.54,1999.49,1979.49,1616.41,1974.87,2082.05,2046,2024,11.678,0,0,0,0,
95,1824.1,2101.03,1839.49,1802.05,1797.44,1868.21,2051.79,1975.38,2121.54,1997.44,1988.72,1622.05,1974.36,2089.23,2046,2023,11.688,0,0,0,0,
96,1830.26,2098.97,1841.54,1802.56,1800.51,1872.31,2056.92,1979.49,2127.69,1996.41,1995.38,1624.62,1979.49,2090.26,2045,2022,11.688,0,0,0,0,
97,1833.85,2101.54,1839.49,1800,1800.51,1882.56,2056.41,1982.05,2132.82,2002.56,1994.36,1624.1,1983.59,2087.69,2046,2023,11.698,0,0,0,0,
98,1837.44,2106.67,1843.08,1804.1,1803.08,1886.67,2055.9,1981.54,2133.85,2010.77,1994.36,1625.13,1980.51,2094.36,2046,2024,11.708,0,0,0,0,
99,1841.54,2104.62,1848.21,1809.23,1806.67,1886.15,2062.05,1981.03,2135.9,2014.36,1996.92,1630.26,1984.1,2100,2047,2023,11.718,0,0,0,0,
100,1838.97,2102.05,1850.26,1810.77,1810.26,1888.72,2064.1,1983.08,2137.44,2013.85,1998.97,1636.41,1992.82,2098.97,2047,2022,11.729,0,0,0,0,
101,1842.05,2106.67,1855.38,1815.9,1813.85,1891.28,2060.51,1989.74,2136.41,2012.31,1998.97,1638.97,1995.38,2100,2046,2020,11.733,0,0,0,0,
102,1852.31,2110.77,1857.95,1822.56,1817.44,1894.87,2063.59,1994.36,2136.41,2013.33,1996.41,1638.97,1994.36,2104.62,2046,2021,11.741,0,0,0,0,
103,1855.9,2111.28,1855.38,1824.62,1821.54,1900,2068.72,1994.87,2136.92,2015.38,2001.03,1640,1993.33,2107.18,2046,2023,11.749,0,0,0,0,
104,1854.36,2112.82,1860,1828.21,1823.59,1901.54,2067.69,1997.95,2135.38,2014.87,2010.26,1640,1994.87,2105.13,2046,2021,11.757,0,0,0,0,
105,1855.9,2116.92,1869.74,1831.79,1827.18,1902.05,2068.72,1998.97,2136.92,2018.46,2011.79,1642.56,1998.97,2106.67,2046,2021,11.767,0,0,0,0,
106,1859.49,2119.49,1873.33,1832.82,1831.28,1905.64,2073.33,1997.95,2142.56,2027.69,2010.77,1652.82,1997.44,2109.23,2045,2021,11.767,0,0,0,0,
107,1862.56,2119.49,1869.74,1836.41,1833.33,1907.18,2076.41,1998.97,2149.23,2030.77,2013.85,1658.97,1998.97,2109.23,2046,2023,11.777,0,0,0,0,
108,1865.13,2119.49,1871.79,1841.03,1836.41,1908.72,2077.44,1998.97,2150.77,2028.21,2014.36,1655.38,2008.21,2111.79,2047,2022,11.787,0,0,0,0,
109,1870.26,2119.49,1881.54,1840,1840,1914.87,2080,2000.51,2150.77,2030.77,2012.31,1655.38,2011.79,2115.9,2048,2022,11.797,0,0,0,0,
110,1873.85,2120.51,1886.15,1841.54,1840,1918.46,2084.1,2006.67,2151.79,2030.77,2015.38,1658.46,2009.74,2115.38,2047,2021,11.807,0,0,0,0,
111,1871.79,2118.97,1886.15,1848.72,1843.59,1916.41,2086.67,2010.77,2151.79,2029.23,2023.08,1656.92,2014.87,2114.87,2046,2021,11.807,0,0,0,0,
112,1874.87,2122.56,1886.67,1853.33,1853.85,1916.92,2087.18,2014.36,2151.79,2035.9,2027.69,1660,2015.38,2119.49,2046,2024,11.817,0,0,0,0,
113,1884.62,2130.26,1886.67,1856.92,1855.38,1921.54,2086.67,2014.87,2153.33,2042.05,2025.13,1669.74,2012.31,2121.03,2046,2024,11.827,0,0,0,0,
114,1887.18,2133.85,1890.26,1856.41,1853.85,1924.62,2089.23,2013.85,2153.33,2041.03,2025.64,1673.33,2020.51,2118.97,2047,2023,11.837,0,0,0,0,
115,1882.56,2135.38,1898.97,1856.92,1856.41,1927.18,2090.26,2021.03,2153.85,2041.54,2029.74,1671.28,2027.69,2120.51,2046,2023,11.837,0,0,0,0,
116,1885.13,2135.9,1901.54,1863.59,1855.9,1933.33,2089.23,2028.72,2160,2045.64,2030.26,1673.85,2025.13,2126.67,2045,2022,11.847,0,0,0,0,
117,1888.72,2135.38,1901.03,1869.23,1857.44,1933.33,2093.33,2028.21,2166.67,2047.18,2028.72,1674.87,2027.69,2131.79,2046,2023,11.857,0,0,0,0,
118,1888.21,2135.9,1904.62,1871.28,1865.64,1932.31,2099.49,2029.23,2167.69,2046.15,2031.79,1671.28,2032.82,2132.31,2046,2025,11.867,0,0,0,0,
119,1894.36,2137.95,1904.1,1872.31,1873.33,1941.03,2101.03,2033.85,2167.69,2047.18,2039.49,1677.44,2032.31,2134.36,2045,2023,11.877,0,0,0,0,
120,1901.54,2136.92,1904.62,1872.31,1873.85,1945.64,2102.05,2034.36,2168.21,2050.26,2041.54,1687.69,2031.28,2136.92,2046,2022,11.877,0,0,0,0,
121,1903.08,2136.92,1912.82,1874.87,1871.28,1942.05,2104.62,2033.33,2168.21,2055.9,2040,1688.21,2033.33,2135.9,2046,2021,11.887,0,0,0,0,
122,1905.13,2142.05,1917.95,1882.56,1874.87,1943.08,2103.59,2034.36,2168.21,2060,2042.56,1687.18,2037.95,2136.41,2046,2023,11.897,0,0,0,0,
123,1908.21,2147.18,1918.46,1885.64,1883.59,1949.23,2103.08,2036.92,2167.69,2061.03,2047.69,1690.77,2043.59,2137.44,2046,2023,11.907,0,0,0,0,
124,1909.23,2147.69,1920,1885.13,1888.21,1949.74,2106.67,2042.56,2167.69,2063.08,2047.18,1689.23,2044.62,2139.49,2046,2022,11.917,0,0,0,0,
125,1913.33,2149.74,1920,1885.64,1885.64,1948.72,2109.74,2045.64,2170.77,2066.67,2045.64,1690.77,2044.62,2145.13,2046,2021,11.917,0,0,0,0,
126,1917.44,2153.85,1922.56,1886.67,1887.69,1955.38,2113.85,2045.13,2175.38,2067.69,2050.77,1703.08,2047.18,2148.72,2046,2021,11.927,0,0,0,0,
127,1916.92,2152.82,1930.77,1891.79,1897.44,1962.05,2116.41,2046.15,2179.49,2068.21,2056.41,1707.69,2050.77,2150.26,2046,2021,11.937,0,0,0,0,
128,1917.44,2151.79,1935.38,1899.49,1901.03,1963.08,2115.9,2044.62,2182.05,2070.77,2058.46,1702.56,2053.85,2151.79,2046,2021,11.947,0,0,0,0,
0,1922.05,2153.33,1933.33,1902.05,1898.97,1963.08,2116.41,2045.13,2183.59,2075.38,2060,1704.62,2055.9,2151.28,2046,2022,11.957,0,0,0,0,
1,1928.72,2154.36,1932.82,1902.05,1901.54,1966.67,2118.46,2053.33,2184.1,2081.54,2062.05,1707.18,2056.41,2150.77,2046,2021,11.957,0,0,0,0,
2,1931.79,2158.46,1937.95,1903.59,1904.1,1965.13,2121.03,2059.49,2185.64,2084.62,2063.08,1704.62,2057.44,2152.31,2047,2021,11.967,0,0,0,0,
3,1932.31,2163.08,1944.1,1907.69,1904.62,1966.15,2121.54,2060.51,2186.15,2081.03,2065.13,1711.28,2060.51,2152.82,2047,2023,11.977,0,0,0,0,
4,1933.85,2166.15,1945.64,1914.36,1910.26,1975.9,2120.51,2062.05,2184.1,2081.54,2068.21,1722.05,2062.56,2153.33,2046,2023,11.987,0,0,0,0,
5,1935.9,2168.72,1948.72,1920,1916.41,1980.51,2123.08,2063.59,2186.67,2087.69,2071.79,1722.56,2063.59,2153.85,2046,2022,11.987,0,0,0,0,
6,1938.97,2168.21,1951.28,1919.49,1916.41,1979.49,2131.28,2063.59,2189.74,2088.21,2073.85,1720,2064.62,2156.92,2046,2021,11.997,0,0,0,0,
7,1943.59,2166.15,1950.77,1918.46,1918.46,1981.03,2134.87,2067.69,2190.26,2086.67,2070.77,1721.03,2066.67,2161.54,2045,2023,12.007,0,0,0,0,
8,1947.18,2167.18,1954.87,1921.03,1921.54,1983.59,2133.33,2071.79,2197.95,2087.69,2074.36,1721.03,2070.26,2164.62,2046,2023,12.017,0,0,0,0,
9,1949.23,2169.23,1962.05,1926.15,1923.59,1981.54,2134.36,2071.79,2204.1,2089.74,2083.59,1724.1,2072.82,2167.69,2047,2023,12.027,0,0,0,0,
10,1948.72,2167.69,1964.62,1931.28,1929.23,1982.05,2136.41,2073.85,2201.54,2094.87,2085.13,1732.82,2075.38,2170.26,2046,2022,12.027,0,0,0,0,
11,1952.31,2168.21,1965.13,1934.36,1933.85,1988.72,2135.9,2074.87,2197.95,2100,2082.56,1736.41,2080,2168.21,2046,2020,12.037,0,0,0,0,
12,1958.97,2173.85,1965.13,1932.31,1934.36,1995.9,2135.9,2073.85,2200,2099.49,2085.64,1736.41,2083.08,2168.21,2047,2022,12.047,0,0,0,0,
13,1963.08,2180,1964.1,1933.33,1933.33,1997.95,2137.44,2078.97,2203.08,2100,2087.69,1737.95,2086.15,2170.26,2047,2021,12.057,0,0,0,0,
14,1963.08,2183.08,1970.26,1942.05,1935.9,1996.41,2137.44,2084.1,2205.13,2104.1,2087.18,1737.95,2088.72,2171.79,2046,2021,12.067,0,0,0,0,
15,1964.62,2183.59,1977.95,1946.67,1941.54,1997.95,2140,2084.62,2206.15,2104.62,2088.21,1737.44,2088.72,2176.41,2045,2023,12.067,0,0,0,0,
16,1966.67,2184.1,1978.46,1945.64,1946.67,1998.46,2145.13,2086.67,2205.13,2102.56,2091.28,1738.46,2088.72,2179.49,2046,2022,12.077,0,0,0,0,
17,1966.15,2184.62,1980,1948.72,1948.72,1999.49,2148.21,2089.74,2206.15,2104.1,2095.38,1738.97,2094.36,2179.49,2046,2021,12.087,0,0,0,0,
18,1966.67,2185.13,1981.54,1950.77,1948.21,2007.18,2150.26,2089.74,2211.28,2108.72,2098.46,1745.64,2098.97,2183.59,2047,2021,12.097,0,0,0,0,
19,1972.82,2184.62,1983.08,1948.21,1951.79,2013.85,2153.33,2094.87,2215.38,2114.87,2100.51,1753.85,2097.44,2186.67,2046,2024,12.097,0,0,0,0,
20,1980,2187.69,1987.69,1954.36,1958.46,2014.36,2152.31,2100,2216.41,2118.46,2103.08,1753.85,2097.95,2184.1,2047,2022,12.107,0,0,0,0,
21,1981.03,2192.82,1993.85,1962.05,1962.05,2013.85,2150.77,2099.49,2217.95,2118.97,2103.59,1752.82,2101.54,2182.56,2047,2022,12.117,0,0,0,0,
22,1981.03,2192.31,1994.87,1962.56,1963.08,2014.36,2156.92,2101.03,2222.56,2119.49,2103.08,1754.87,2105.64,2186.67,2046,2022,12.127,0,0,0,0,
23,1982.56,2193.85,1994.36,1964.1,1965.64,2017.95,2160.51,2104.1,2222.56,2120.51,2103.59,1754.36,2104.62,2190.77,2046,2021,12.137,0,0,0,0,
24,1983.59,2200.51,1996.41,1965.13,1966.15,2025.64,2160.51,2103.59,2220,2120,2103.08,1757.44,2102.05,2190.77,2046,2023,12.137,0,0,0,0,
25,1988.21,2201.03,1997.95,1968.72,1968.21,2029.23,2164.1,2103.08,2220,2123.59,2105.64,1768.21,2107.69,2189.74,2047,2023,12.147,0,0,0,0,
26,1994.36,2197.44,2001.03,1975.38,1975.9,2028.21,2169.23,2108.21,2222.56,2129.74,2112.82,1771.79,2115.38,2197.95,2047,2023,12.157,0,0,0,0,
27,1995.38,2200.51,2005.13,1978.46,1980,2028.21,2168.72,2115.38,2223.08,2134.36,2115.9,1769.74,2116.41,2203.08,2045,2024,12.167,0,0,0,0,
28,1997.95,2205.64,2009.23,1977.95,1979.49,2030.26,2167.18,2115.38,2222.56,2135.38,2117.95,1769.74,2117.95,2199.49,2046,2024,12.177,0,0,0,0,
29,2000,2206.15,2013.33,1982.05,1982.56,2030.77,2168.72,2113.85,2229.74,2135.9,2120,1770.77,2120,2197.95,2047,2025,12.177,0,0,0,0,
30,1998.46,2206.15,2015.9,1982.56,1982.56,2032.82,2168.21,2118.97,2237.95,2136.92,2120,1772.31,2117.44,2200,2046,2024,12.187,0,0,0,0,
31,2002.56,2206.67,2013.85,1981.03,1982.05,2037.95,2166.15,2122.05,2236.41,2137.44,2119.49,1776.41,2120.51,2201.54,2046,2024,12.197,0,0,0,0,
32,2011.79,2206.15,2015.38,1988.72,1989.23,2042.56,2171.28,2120.51,2235.38,2136.41,2120.51,1782.05,2128.21,2204.62,2046,2021,12.207,0,0,0,0,
33,2014.36,2211.79,2023.08,1994.87,1995.9,2044.1,2177.95,2121.03,2237.44,2138.46,2123.59,1785.64,2131.28,2208.21,2046,2020,12.217,0,0,0,0,
34,2013.33,2221.54,2027.69,1993.85,1996.92,2046.15,2178.46,2122.05,2236.41,2144.1,2128.21,1786.15,2133.33,2206.15,2047,2020,12.217,0,0,0,0,
35,2015.38,2220,2027.69,1995.9,1998.46,2046.15,2180.51,2126.15,2235.38,2148.21,2133.33,1786.67,2136.92,2204.1,2046,2021,12.227,0,0,0,0,
36,2014.87,2214.36,2030.26,1998.97,1998.46,2046.67,2185.64,2133.85,2237.44,2150.26,2136.41,1787.18,2135.9,2210.77,2047,2021,12.237,0,0,0,0,
37,2016.92,2219.49,2030.77,1997.44,2001.54,2052.82,2185.64,2136.92,2240.51,2152.31,2136.92,1786.15,2135.9,2218.46,2047,2022,12.247,0,0,0,0,
38,2024.62,2224.1,2029.74,2001.54,2011.28,2057.44,2185.13,2135.9,2239.49,2151.79,2135.9,1788.21,2137.44,2219.49,2046,2022,12.247,0,0,0,0,
39,2028.21,2223.08,2035.38,2010.26,2014.87,2058.97,2188.72,2136.41,2237.44,2151.79,2135.9,1796.41,2135.38,2219.49,2047,2021,12.257,0,0,0,0,
40,2027.69,2222.56,2042.05,2010.77,2011.28,2061.54,2191.79,2134.87,2243.59,2153.33,2138.46,1801.03,2138.46,2221.54,2047,2021,12.267,0,0,0,0,
41,2029.74,2223.59,2043.59,2010.26,2013.85,2062.05,2193.85,2137.95,2253.85,2153.33,2143.08,1799.49,2144.62,2220.51,2046,2022,12.277,0,0,0,0,
42,2031.79,2228.21,2044.62,2013.85,2016.92,2062.56,2192.82,2145.64,2253.85,2157.44,2146.67,1800.51,2147.18,2222.56,2045,2022,12.287,0,0,0,0,
43,2032.31,2234.87,2046.67,2014.36,2013.33,2066.15,2195.38,2149.23,2250.77,2166.67,2146.67,1806.15,2150.26,2223.08,2046,2024,12.287,0,0,0,0,
44,2038.46,2234.36,2045.64,2013.85,2015.38,2069.74,2203.08,2149.74,2253.85,2169.23,2148.72,1808.21,2153.85,2220.51,2046,2021,12.297,0,0,0,0,
45,2044.62,2233.85,2047.69,2021.03,2023.59,2070.26,2203.59,2152.31,2255.38,2167.18,2153.33,1805.64,2153.33,2229.23,2046,2022,12.307,0,0,0,0,
46,2046.15,2237.44,2054.36,2029.23,2030.26,2073.85,2202.05,2153.33,2253.33,2168.72,2153.33,1809.23,2152.31,2238.46,2046,2023,12.317,0,0,0,0,
47,2046.67,2238.97,2058.46,2030.77,2030.77,2078.97,2205.13,2152.31,2254.36,2169.23,2151.79,1816.41,2153.85,2236.41,2045,2022,12.327,0,0,0,0,
48,2046.15,2236.92,2057.95,2030.77,2028.21,2081.03,2206.67,2151.79,2255.38,2168.72,2151.79,1815.9,2156.92,2235.38,2046,2020,12.327,0,0,0,0,
49,2046.67,2237.95,2056.92,2029.74,2031.28,2084.1,2206.15,2155.38,2255.38,2171.79,2150.77,1814.87,2164.1,2237.95,2048,2023,12.337,0,0,0,0,
50,2052.82,2238.97,2061.54,2030.26,2037.95,2087.18,2205.64,2162.56,2262.05,2177.44,2154.36,1821.54,2168.72,2236.92,2046,2022,12.347,0,0,0,0,
51,2059.49,2238.46,2069.23,2037.44,2040.51,2089.74,2207.18,2166.67,2270.77,2181.03,2163.59,1823.59,2167.18,2234.87,2047,2021,12.357,0,0,0,0,
52,2058.97,2240.51,2072.31,2042.05,2042.05,2088.72,2215.9,2167.18,2270.77,2183.59,2168.21,1821.03,2168.21,2240.51,2047,2023,12.365,0,0,0,0,
53,2061.03,2242.05,2070.26,2042.05,2046.15,2089.23,2221.03,2169.74,2268.21,2183.08,2166.67,1822.05,2168.21,2243.08,2046,2023,12.369,0,0,0,0,
54,2067.18,2242.05,2074.87,2044.62,2047.18,2095.9,2214.87,2169.74,2269.23,2183.59,2168.21,1824.62,2167.18,2241.03,2046,2021,12.379,0,0,0,0,
55,2067.69,2247.18,2081.54,2046.15,2049.23,2100.51,2213.85,2168.21,2269.74,2185.64,2168.72,1827.18,2169.23,2245.64,2046,2023,12.389,0,0,0,0,
56,2069.74,2253.85,2078.97,2047.69,2054.87,2097.95,2220.51,2170.77,2269.23,2186.15,2167.69,1833.33,2173.85,2252.82,2047,2022,12.389,0,0,0,0,
57,2073.85,2253.33,2077.44,2053.85,2056.92,2097.95,2222.05,2172.82,2269.74,2187.18,2171.79,1837.95,2178.46,2252.31,2047,2021,12.399,0,0,0,0,
58,2076.41,2252.31,2083.59,2056.92,2058.46,2103.59,2220,2174.87,2271.28,2188.72,2174.87,1837.95,2183.08,2250.26,2046,2022,12.409,0,0,0,0,
59,2080.51,2254.36,2089.23,2055.9,2063.59,2104.1,2221.03,2180.51,2271.28,2193.33,2176.41,1839.49,2184.1,2253.85,2046,2022,12.419,0,0,0,0,
60,2084.62,2255.9,2088.21,2061.54,2062.56,2102.56,2223.59,2185.64,2270.26,2200,2183.08,1841.03,2183.59,2254.36,2047,2021,12.429,0,0,0,0,
61,2082.56,2256.41,2087.18,2065.13,2061.54,2110.26,2225.64,2184.62,2276.92,2201.54,2187.18,1838.97,2185.13,2252.82,2046,2022,12.429,0,0,0,0,
62,2082.56,2255.38,2090.77,2061.54,2069.23,2116.41,2229.74,2183.08,2286.15,2200,2184.1,1841.54,2187.18,2254.87,2047,2022,12.439,0,0,0,0,
63,2088.72,2259.49,2098.46,2063.08,2073.85,2114.36,2235.38,2186.15,2286.67,2204.62,2184.1,1847.18,2187.69,2254.87,2046,2022,12.449,0,0,0,0,
64,2089.23,2269.74,2101.54,2072.31,2070.26,2113.33,2237.44,2190.26,2284.62,2208.72,2186.67,1848.21,2187.69,2253.33,2046,2022,12.459,0,0,0,0,
65,2088.72,2269.74,2097.95,2074.87,2073.85,2118.46,2237.44,2192.31,2286.15,2203.08,2185.13,1850.26,2192.82,2256.92,2046,2023,12.469,0,0,0,0,
66,2095.9,2265.64,2100.51,2072.82,2082.05,2121.54,2237.95,2189.23,2286.67,2207.69,2182.56,1854.87,2202.56,2266.67,2047,2023,12.469,0,0,0,0,
67,2101.03,2267.69,2106.15,2077.95,2082.05,2118.97,2237.44,2190.77,2287.69,2218.97,2188.21,1855.9,2203.08,2270.26,2046,2022,12.479,0,0,0,0,
68,2098.46,2271.79,2107.18,2085.64,2083.59,2121.03,2237.95,2199.49,2286.15,2217.95,2197.95,1854.87,2197.95,2267.69,2045,2021,12.489,0,0,0,0,
69,2100.51,2271.79,2109.74,2084.1,2088.72,2128.72,2237.44,2202.05,2289.23,2213.33,2201.03,1854.87,2201.54,2269.23,2047,2023,12.499,0,0,0,0,
70,2104.62,2271.79,2116.41,2083.59,2087.18,2133.33,2238.97,2201.03,2297.44,2217.95,2199.49,1857.44,2206.15,2271.28,2046,2020,12.499,0,0,0,0,
71,2104.62,2273.33,2120,2088.21,2089.74,2132.82,2248.72,2204.62,2294.87,2223.08,2200.51,1865.13,2205.13,2271.28,2046,2022,12.509,0,0,0,0,
72,2109.23,2270.77,2120,2090.26,2098.97,2135.9,2255.38,2207.18,2291.28,2220.51,2202.05,1869.74,2207.18,2271.28,2047,2024,12.519,0,0,0,0,
73,2116.41,2271.28,2119.49,2093.33,2101.54,2138.97,2251.79,2206.67,2300,2219.49,2206.15,1868.21,2210.77,2272.82,2046,2025,12.529,0,0,0,0,
74,2115.38,2280.51,2118.97,2099.49,2097.95,2137.44,2250.26,2209.23,2304.1,2222.05,2207.18,1867.18,2215.38,2280,2046,2024,12.539,0,0,0,0,
75,2112.82,2285.64,2124.1,2098.97,2101.54,2136.92,2255.38,2208.72,2300,2221.54,2204.62,1869.23,2220.51,2286.15,2046,2023,12.539,0,0,0,0,
76,2116.92,2283.59,2131.28,2098.46,2104.62,2144.62,2254.87,2206.67,2301.03,2224.62,2211.28,1872.82,2220.51,2285.64,2046,2024,12.549,0,0,0,0,
77,2121.54,2285.13,2133.85,2105.13,2104.1,2152.31,2253.85,2214.87,2303.59,2234.36,2221.03,1874.36,2221.03,2285.13,2047,2023,12.559,0,0,0,0,
78,2122.05,2287.69,2133.85,2106.15,2108.72,2152.82,2254.36,2223.08,2304.1,2237.95,2216.41,1872.31,2222.56,2286.67,2046,2021,12.569,0,0,0,0,
79,2120.51,2287.18,2135.9,2103.59,2114.87,2150.77,2253.85,2222.56,2304.62,2235.9,2212.31,1875.9,2222.56,2286.15,2047,2021,12.579,0,0,0,0,
80,2124.1,2287.18,2135.38,2110.26,2117.95,2152.31,2261.03,2219.49,2302.05,2237.95,2220,1885.13,2223.08,2284.62,2046,2020,12.579,0,0,0,0,
81,2132.82,2287.69,2135.9,2116.41,2118.46,2152.82,2270.26,2221.03,2308.21,2240.51,2223.59,1886.67,2225.64,2286.67,2046,2021,12.589,0,0,0,0,
82,2136.41,2287.18,2142.05,2116.41,2120,2152.82,2269.74,2224.1,2317.95,2238.97,2220,1883.59,2229.74,2288.72,2046,2022,12.599,0,0,0,0,
83,2135.38,2287.69,2145.13,2118.97,2121.03,2157.95,2268.72,2221.03,2319.49,2238.46,2220.51,1886.15,2236.41,2287.18,2046,2023,12.609,0,0,0,0,
84,2136.41,2292.31,2145.64,2121.03,2119.49,2161.03,2271.28,2224.1,2316.41,2237.95,2224.1,1889.23,2238.46,2289.74,2046,2021,12.619,0,0,0,0,
85,2137.44,2300.51,2149.23,2118.46,2123.59,2161.54,2269.74,2235.38,2316.92,2242.05,2222.56,1888.21,2236.41,2298.97,2045,2022,12.619,0,0,0,0,
86,2136.92,2303.08,2152.82,2124.62,2129.74,2166.15,2269.23,2240,2318.46,2252.31,2222.05,1888.21,2237.95,2302.56,2046,2022,12.629,0,0,0,0,
87,2142.05,2301.03,2153.33,2132.82,2131.79,2168.21,2272.82,2235.38,2318.97,2255.9,2231.79,1893.85,2238.97,2300,2047,2023,12.639,0,0,0,0,
88,2146.15,2302.05,2151.79,2131.79,2132.31,2166.15,2270.26,2235.9,2319.49,2251.79,2239.49,1899.49,2237.95,2301.54,2046,2024,12.649,0,0,0,0,
89,2147.18,2304.1,2153.33,2131.28,2136.92,2167.69,2273.33,2240.51,2320,2251.79,2237.44,1900,2241.03,2303.59,2046,2022,12.649,0,0,0,0,
90,2149.23,2305.13,2162.56,2135.9,2137.95,2169.74,2284.1,2238.97,2321.03,2253.85,2236.92,1900.51,2247.18,2301.54,2046,2023,12.659,0,0,0,0,
91,2152.31,2302.56,2170.26,2137.95,2134.87,2170.77,2288.72,2236.41,2318.97,2254.87,2240,1903.08,2251.79,2301.54,2046,2023,12.669,0,0,0,0,
92,2153.85,2305.13,2168.21,2135.38,2137.95,2177.44,2285.64,2243.59,2319.49,2253.85,2240.51,1904.1,2253.85,2304.62,2046,2022,12.679,0,0,0,0,
93,2152.82,2314.36,2166.15,2138.46,2145.13,2184.62,2285.13,2253.85,2329.74,2251.79,2237.44,1905.13,2253.85,2305.13,2046,2021,12.689,0,0,0,0,
94,2153.85,2316.41,2170.26,2145.64,2150.26,2186.15,2286.15,2254.87,2336.41,2260,2237.95,1906.15,2253.33,2304.62,2047,2023,12.689,0,0,0,0,
95,2161.03,2313.85,2172.82,2151.28,2152.31,2185.64,2285.64,2251.28,2333.33,2270.77,2247.18,1909.23,2252.82,2311.28,2046,2023,12.699,0,0,0,0,
96,2169.23,2316.92,2173.85,2152.31,2154.36,2185.13,2287.18,2252.82,2332.82,2270.26,2254.36,1914.87,2256.41,2318.46,2046,2024,12.709,0,0,0,0,
97,2169.23,2321.03,2178.46,2152.31,2154.87,2187.69,2286.67,2254.87,2335.9,2267.69,2252.31,1916.92,2257.44,2316.92,2045,2024,12.719,0,0,0,0,
98,2168.21,2318.46,2181.54,2151.28,2153.85,2191.28,2288.72,2254.87,2335.9,2270.26,2251.28,1918.46,2255.38,2316.41,2046,2022,12.729,0,0,0,0,
99,2169.74,2316.41,2181.54,2150.77,2158.46,2190.26,2297.95,2253.85,2334.87,2272.31,2254.36,1918.97,2262.56,2318.97,2045,2022,12.729,0,0,0,0,
100,2169.74,2320,2181.03,2157.95,2164.62,2193.33,2303.08,2253.33,2336.92,2269.23,2255.9,1919.49,2271.28,2319.49,2046,2023,12.739,0,0,0,0,
101,2171.79,2320,2185.13,2162.05,2166.15,2200,2301.54,2261.54,2336.92,2269.74,2254.87,1924.62,2269.74,2320,2046,2023,12.749,0,0,0,0,
102,2181.54,2317.44,2191.79,2161.03,2168.21,2201.54,2302.56,2270.77,2335.38,2278.97,2253.33,1931.28,2267.18,2317.95,2046,2024,12.759,0,0,0,0,
103,2187.18,2323.59,2188.21,2164.62,2168.72,2201.03,2304.1,2269.74,2340,2287.18,2260,1931.79,2270.77,2322.56,2047,2023,12.759,0,0,0,0,
104,2183.59,2334.36,2184.62,2169.74,2167.69,2205.64,2303.08,2266.15,2349.23,2285.64,2269.74,1931.28,2270.77,2330.26,2046,2023,12.769,0,0,0,0,
105,2183.59,2335.38,2193.85,2167.69,2172.31,2208.21,2304.1,2267.69,2352.82,2284.1,2270.77,1932.82,2271.79,2328.72,2046,2022,12.779,0,0,0,0,
106,2186.67,2332.31,2203.08,2169.74,2174.87,2205.13,2304.1,2270.26,2350.77,2288.21,2267.69,1932.82,2281.03,2328.21,2047,2023,12.789,0,0,0,0,
107,2186.67,2334.36,2199.49,2174.87,2174.87,2207.69,2300.51,2272.82,2350.26,2288.21,2268.72,1932.82,2286.15,2332.82,2046,2022,12.799,0,0,0,0,
108,2187.69,2335.9,2197.95,2175.38,2182.05,2216.92,2305.13,2270.77,2351.28,2285.64,2271.28,1933.85,2285.64,2334.36,2046,2024,12.799,0,0,0,0,
109,2194.36,2334.36,2205.13,2179.49,2186.15,2222.56,2315.38,2269.23,2350.77,2287.69,2273.33,1932.31,2285.13,2334.87,2047,2022,12.809,0,0,0,0,
110,2200,2334.87,2207.69,2185.64,2184.62,2220.51,2318.46,2279.49,2351.79,2287.18,2270.77,1933.85,2286.15,2335.38,2046,2022,12.819,0,0,0,0,
111,2201.03,2335.9,2205.64,2184.62,2188.21,2219.49,2316.92,2287.69,2352.31,2285.13,2270.77,1938.46,2286.15,2335.38,2047,2023,12.829,0,0,0,0,
112,2199.49,2334.87,2207.18,2181.54,2191.79,2223.59,2317.95,2285.64,2352.31,2290.77,2281.03,1943.59,2286.15,2342.05,2046,2022,12.839,0,0,0,0,
113,2198.97,2339.49,2214.87,2186.67,2190.26,2222.56,2318.46,2285.13,2357.44,2301.03,2287.18,1946.67,2288.21,2347.18,2045,2023,12.839,0,0,0,0,
114,2205.13,2348.72,2222.56,2191.28,2194.87,2219.49,2317.95,2288.72,2366.15,2302.05,2283.59,1948.21,2287.18,2344.62,2046,2024,12.849,0,0,0,0,
115,2205.64,2351.28,2220,2190.26,2201.03,2226.67,2320.51,2289.74,2368.72,2299.49,2282.56,1948.72,2285.64,2346.15,2045,2024,12.859,0,0,0,0,
116,2206.15,2349.74,2216.41,2193.33,2201.03,2236.41,2322.56,2286.15,2366.67,2302.56,2286.15,1949.74,2293.85,2348.72,2046,2024,12.869,0,0,0,0,
117,2215.38,2350.26,2219.49,2200,2199.49,2236.41,2320,2288.72,2366.15,2303.59,2286.15,1950.77,2304.1,2348.21,2046,2023,12.879,0,0,0,0,
118,2220,2351.28,2222.05,2201.54,2200.51,2234.36,2320,2294.87,2367.69,2301.54,2285.13,1950.77,2302.56,2349.23,2047,2021,12.879,0,0,0,0,
119,2217.95,2350.77,2225.13,2202.05,2204.1,2236.92,2327.69,2295.9,2367.18,2303.59,2288.21,1953.85,2298.46,2351.28,2048,2024,12.889,0,0,0,0,
120,2220,2352.82,2231.28,2206.15,2205.13,2240,2335.9,2297.44,2368.21,2302.56,2289.23,1961.54,2301.54,2350.26,2047,2023,12.899,0,0,0,0,
121,2223.08,2354.87,2233.33,2207.18,2208.72,2238.97,2334.87,2302.56,2372.31,2303.08,2286.15,1963.59,2305.13,2351.79,2045,2022,12.909,0,0,0,0,
122,2222.56,2352.82,2235.9,2205.13,2216.41,2242.05,2332.82,2303.08,2373.85,2312.31,2292.31,1963.59,2304.62,2353.33,2046,2022,12.909,0,0,0,0,
123,2222.56,2352.82,2238.46,2211.28,2218.97,2249.23,2334.36,2301.54,2375.38,2320.51,2303.59,1967.18,2302.56,2351.79,2046,2023,12.919,0,0,0,0,
124,2223.08,2361.54,2236.41,2220,2218.97,2253.85,2335.38,2303.59,2379.49,2318.46,2303.59,1968.72,2306.67,2355.38,2047,2022,12.929,0,0,0,0,
125,2229.23,2369.23,2236.92,2221.03,2222.56,2252.31,2335.38,2303.59,2381.03,2315.9,2300.51,1966.67,2316.92,2365.13,2046,2021,12.939,0,0,0,0,
126,2236.92,2367.69,2238.97,2220.51,2222.56,2252.31,2337.44,2300.51,2380.51,2318.46,2302.56,1967.18,2320,2368.21,2046,2022,12.949,0,0,0,0,
127,2237.95,2367.18,2239.49,2223.08,2221.03,2254.36,2336.41,2305.64,2382.05,2318.97,2303.59,1968.21,2316.41,2365.13,2047,2020,12.949,0,0,0,0,
128,2237.95,2368.21,2247.18,2224.1,2223.59,2255.38,2336.92,2315.38,2384.1,2320.51,2303.59,1965.64,2316.92,2366.15,2047,2021,12.959,0,0,0,0,
0,2238.46,2367.18,2254.87,2225.64,2221.54,2255.9,2343.08,2320,2384.62,2320.51,2303.08,1968.72,2319.49,2366.67,2046,2021,12.969,0,0,0,0,
1,2238.97,2366.15,2253.33,2227.18,2226.15,2253.85,2350.26,2316.92,2383.59,2318.46,2302.56,1976.92,2321.54,2368.72,2046,2022,12.979,0,0,0,0,
2,2240,2366.67,2252.31,2224.1,2237.44,2259.49,2350.77,2316.41,2384.62,2323.59,2310.77,1979.49,2319.49,2370.26,2045,2023,12.989,0,0,0,0,
3,2238.97,2370.26,2254.36,2228.72,2238.46,2270.26,2349.74,2319.49,2388.72,2333.85,2319.49,1978.97,2316.92,2367.69,2045,2024,12.989,0,0,0,0,
4,2243.08,2372.31,2255.9,2237.95,2236.41,2272.31,2351.28,2320,2390.77,2335.9,2318.97,1982.05,2326.15,2370.77,2045,2022,12.999,0,0,0,0,
5,2252.82,2372.82,2256.92,2237.95,2239.49,2268.72,2352.31,2321.03,2392.31,2333.85,2317.95,1983.59,2333.85,2378.97,2046,2022,13.009,0,0,0,0,
6,2254.87,2376.92,2254.36,2237.44,2240,2269.74,2353.33,2323.08,2396.41,2334.87,2320,1980,2330.26,2381.03,2046,2023,13.019,0,0,0,0,
7,2253.33,2383.08,2258.46,2240,2242.05,2271.28,2351.79,2320.51,2397.44,2337.44,2319.49,1983.08,2331.79,2377.95,2045,2024,13.019,0,0,0,0,
8,2254.87,2384.62,2268.72,2237.95,2251.28,2271.28,2353.33,2320,2394.87,2337.44,2318.46,1991.79,2336.92,2379.49,2045,2023,13.029,0,0,0,0,
9,2256.41,2382.56,2271.79,2243.59,2255.38,2271.79,2363.08,2329.23,2397.95,2336.41,2320,1995.9,2334.87,2383.59,2046,2024,13.039,0,0,0,0,
10,2255.38,2384.1,2268.72,2254.87,2252.82,2269.74,2367.18,2336.41,2405.13,2340.51,2318.97,1995.9,2332.82,2383.59,2045,2023,13.049,0,0,0,0,
11,2253.85,2388.21,2269.23,2254.87,2253.33,2274.36,2363.59,2334.87,2404.62,2348.21,2321.54,1996.92,2336.92,2382.05,2046,2024,13.059,0,0,0,0,
12,2260,2389.74,2272.82,2249.74,2254.87,2284.62,2364.62,2332.82,2401.03,2349.74,2330.77,1998.46,2336.92,2384.62,2046,2023,13.059,0,0,0,0,
13,2270.26,2387.18,2271.28,2251.79,2256.41,2287.69,2368.21,2334.36,2405.13,2349.74,2335.9,1995.9,2335.9,2389.23,2046,2021,13.069,0,0,0,0,
14,2271.79,2384.62,2269.23,2255.38,2256.41,2285.64,2368.72,2336.41,2409.23,2351.28,2333.85,1994.87,2342.56,2391.28,2046,2023,13.079,0,0,0,0,
15,2267.18,2387.18,2277.95,2253.85,2254.87,2285.64,2369.23,2334.87,2406.67,2351.79,2333.85,1997.95,2351.79,2391.79,2047,2024,13.089,0,0,0,0,
16,2270.26,2394.36,2288.21,2253.33,2261.54,2288.72,2368.21,2336.92,2407.69,2351.79,2336.41,1998.46,2352.31,2394.87,2045,2023,13.099,0,0,0,0,
17,2272.82,2398.46,2286.67,2260.51,2270.77,2287.69,2367.18,2347.18,2413.33,2352.31,2335.38,1998.97,2349.23,2396.92,2045,2021,13.099,0,0,0,0,
18,2270.26,2396.92,2283.59,2270.26,2270.26,2286.15,2374.87,2353.85,2414.36,2351.79,2334.87,2004.62,2351.28,2396.41,2045,2023,13.109,0,0,0,0,
19,2276.92,2398.97,2290.77,2270.77,2268.21,2292.31,2382.05,2350.77,2414.87,2356.41,2336.92,2010.26,2350.77,2396.41,2045,2023,13.119,0,0,0,0,
20,2285.64,2404.62,2291.28,2267.69,2270.77,2301.54,2380.51,2349.23,2419.49,2365.13,2336.92,2011.28,2350.26,2398.46,2045,2021,13.129,0,0,0,0,
21,2286.67,2405.64,2287.69,2270.26,2272.82,2302.05,2380,2352.31,2421.54,2367.69,2335.9,2013.33,2359.49,2402.05,2045,2021,13.139,0,0,0,0,
22,2283.59,2404.62,2293.85,2273.33,2270.77,2301.03,2384.1,2352.82,2419.49,2366.67,2340,2014.36,2367.69,2405.64,2047,2022,13.139,0,0,0,0,
23,2285.13,2404.62,2299.49,2270.26,2270.26,2303.59,2383.08,2351.28,2420.51,2366.67,2348.72,2012.31,2367.18,2404.62,2047,2021,13.149,0,0,0,0,
24,2289.23,2404.62,2299.49,2269.74,2277.44,2303.08,2383.08,2354.36,2422.56,2367.18,2351.79,2013.33,2364.1,2404.1,2046,2021,13.159,0,0,0,0,
25,2287.18,2409.23,2300.51,2279.49,2287.18,2303.08,2387.18,2362.05,2421.54,2367.18,2349.74,2016.41,2365.64,2407.18,2046,2022,13.169,0,0,0,0,
26,2285.13,2412.82,2301.54,2287.18,2287.18,2303.59,2388.72,2365.64,2422.05,2367.18,2352.31,2013.85,2367.69,2408.72,2046,2022,13.169,0,0,0,0,
27,2293.85,2410.77,2303.08,2285.64,2283.59,2305.13,2390.77,2365.13,2426.15,2370.77,2354.36,2014.36,2367.18,2407.69,2046,2022,13.184,0,0,0,0,
28,2304.62,2411.79,2304.62,2284.62,2288.21,2313.33,2393.85,2366.15,2427.69,2376.92,2351.79,2021.54,2365.64,2407.69,2045,2023,13.192,0,0,0,0,
29,2301.54,2417.44,2303.59,2287.69,2288.72,2320.51,2394.36,2368.21,2429.74,2377.95,2353.33,2026.15,2367.69,2409.74,2046,2025,13.2,0,0,0,0,
30,2297.95,2420.51,2306.67,2288.72,2285.13,2317.95,2394.36,2367.69,2434.87,2376.92,2360,2025.13,2371.79,2412.31,2046,2026,13.208,0,0,0,0,
31,2302.56,2421.03,2315.38,2287.18,2292.82,2316.92,2397.95,2367.69,2436.92,2382.05,2364.62,2025.64,2374.87,2415.9,2048,2024,13.218,0,0,0,0,
32,2304.62,2420,2317.44,2287.18,2303.08,2319.49,2398.46,2368.72,2434.87,2385.64,2366.15,2029.74,2379.49,2418.97,2047,2023,13.218,0,0,0,0,
33,2303.59,2421.54,2316.92,2293.33,2302.56,2321.03,2398.46,2372.31,2435.38,2381.54,2367.18,2031.79,2382.56,2423.08,2047,2023,13.228,0,0,0,0,
34,2303.08,2424.62,2318.46,2302.56,2300.51,2320.51,2403.59,2375.38,2437.95,2383.08,2368.21,2030.77,2382.56,2424.62,2046,2021,13.238,0,0,0,0,
35,2304.62,2426.15,2320,2303.59,2303.08,2320,2407.18,2377.95,2439.49,2389.23,2367.69,2031.79,2383.08,2423.08,2046,2023,13.248,0,0,0,0,
36,2312.31,2427.18,2320,2301.54,2304.1,2325.13,2405.13,2381.54,2441.03,2390.26,2367.69,2031.28,2384.62,2424.1,2046,2023,13.256,0,0,0,0,
37,2317.95,2428.72,2318.97,2304.1,2302.05,2333.85,2403.59,2383.08,2441.54,2389.23,2371.79,2030.26,2385.13,2427.18,2046,2022,13.264,0,0,0,0,
38,2316.41,2431.79,2321.03,2306.15,2303.59,2335.38,2407.69,2383.08,2440.51,2392.82,2373.85,2035.38,2383.08,2431.79,2046,2023,13.268,0,0,0,0,
39,2316.92,2436.41,2330.26,2303.59,2312.31,2332.82,2410.77,2382.05,2444.1,2395.9,2373.85,2042.56,2382.56,2432.82,2047,2023,13.278,0,0,0,0,
40,2322.05,2436.41,2335.9,2303.59,2320.51,2333.33,2411.28,2383.59,2449.23,2397.44,2377.95,2043.59,2390.77,2432.82,2048,2022,13.288,0,0,0,0,
41,2320.51,2434.36,2333.85,2312.31,2318.46,2335.9,2411.79,2387.18,2451.79,2401.54,2382.05,2044.1,2397.44,2436.92,2047,2023,13.288,0,0,0,0,
42,2318.46,2435.9,2334.36,2320.51,2315.38,2335.38,2415.38,2389.23,2452.31,2404.62,2381.54,2046.67,2396.92,2437.44,2046,2022,13.298,0,0,0,0,
43,2326.67,2437.44,2335.9,2318.46,2318.97,2334.87,2418.46,2389.74,2453.33,2404.1,2383.08,2046.67,2397.95,2436.41,2045,2022,13.308,0,0,0,0,
44,2334.36,2435.38,2335.38,2316.92,2321.54,2339.49,2419.49,2392.82,2452.31,2404.1,2385.13,2045.64,2399.49,2439.49,2047,2022,13.318,0,0,0,0,
45,2333.85,2437.44,2336.41,2320.51,2318.97,2348.21,2421.03,2397.44,2451.28,2405.64,2383.59,2046.67,2400,2440,2046,2021,13.328,0,0,0,0,
46,2333.85,2444.62,2342.05,2322.05,2318.46,2351.28,2422.05,2397.95,2456.41,2405.13,2385.13,2045.64,2402.56,2437.44,2045,2023,13.328,0,0,0,0,
47,2335.9,2445.13,2347.69,2319.49,2328.21,2349.74,2421.03,2398.46,2458.97,2405.13,2389.74,2047.18,2406.15,2441.54,2047,2024,13.338,0,0,0,0,
48,2333.85,2441.54,2350.26,2318.46,2335.9,2350.26,2421.54,2402.56,2455.38,2410.77,2392.31,2054.36,2407.18,2447.18,2046,2023,13.348,0,0,0,0,
49,2334.36,2445.13,2350.26,2326.67,2333.85,2350.77,2424.1,2406.15,2457.95,2414.36,2392.31,2058.46,2409.23,2448.21,2046,2022,13.358,0,0,0,0,
50,2336.92,2451.79,2351.28,2335.9,2332.82,2352.82,2426.67,2405.13,2465.64,2413.33,2395.9,2058.46,2410.77,2446.67,2045,2024,13.358,0,0,0,0,
51,2335.38,2452.82,2352.31,2335.38,2334.87,2353.33,2430.26,2406.15,2468.21,2415.9,2398.46,2060.51,2410.26,2449.23,2045,2023,13.368,0,0,0,0,
52,2340.51,2451.79,2352.31,2333.33,2335.9,2351.79,2433.85,2410.26,2467.69,2421.03,2398.97,2063.59,2413.33,2454.36,2046,2023,13.378,0,0,0,0,
53,2350.77,2451.79,2351.79,2335.9,2337.44,2356.41,2434.87,2410.26,2468.72,2420.51,2402.56,2062.05,2418.46,2453.85,2046,2023,13.388,0,0,0,0,
54,2352.82,2453.85,2353.85,2337.44,2336.92,2365.64,2434.36,2411.28,2468.72,2418.97,2405.13,2061.54,2421.03,2450.26,2047,2021,13.398,0,0,0,0,
55,2350.26,2456.41,2359.49,2335.38,2340.51,2368.21,2435.9,2413.33,2466.67,2422.05,2403.59,2066.15,2418.97,2455.38,2047,2021,13.398,0,0,0,0,
56,2350.77,2458.46,2364.62,2336.41,2350.26,2365.13,2437.95,2413.85,2469.23,2425.64,2403.59,2068.21,2418.46,2461.03,2045,2022,13.408,0,0,0,0,
57,2352.82,2456.92,2365.13,2341.54,2351.79,2366.67,2438.46,2417.44,2473.33,2428.21,2405.13,2067.69,2420.51,2458.46,2045,2023,13.418,0,0,0,0,
58,2353.33,2456.41,2366.15,2349.23,2349.74,2369.74,2437.44,2421.54,2473.33,2429.74,2406.15,2068.72,2423.08,2457.44,2046,2023,13.428,0,0,0,0,
59,2351.79,2461.03,2366.67,2352.31,2352.31,2370.26,2440,2420.51,2476.41,2430.26,2410.77,2072.31,2423.59,2461.54,2047,2024,13.438,0,0,0,0,
60,2354.87,2467.69,2367.69,2350.77,2353.33,2373.85,2444.62,2422.05,2482.56,2431.79,2414.36,2073.85,2424.1,2465.64,2046,2023,13.438,0,0,0,0,
61,2364.1,2469.23,2372.31,2350.77,2352.31,2377.44,2443.08,2427.18,2482.56,2436.41,2413.85,2072.31,2429.23,2467.18,2045,2023,13.448,0,0,0,0,
62,2367.69,2467.69,2375.9,2351.79,2353.33,2377.44,2443.59,2427.69,2477.44,2438.46,2416.92,2073.33,2432.82,2468.21,2045,2021,13.462,0,0,0,0,
63,2366.67,2466.15,2377.44,2351.79,2356.92,2376.92,2448.72,2426.67,2478.46,2435.9,2423.08,2079.49,2432.82,2469.23,2045,2021,13.47,0,0,0,0,
64,2368.21,2468.21,2381.03,2353.33,2361.54,2381.03,2451.79,2427.69,2484.1,2435.38,2422.56,2083.08,2435.9,2467.69,2046,2021,13.478,0,0,0,0,
65,2369.74,2472.31,2383.08,2357.95,2364.62,2383.59,2452.82,2428.21,2487.69,2438.97,2421.03,2082.05,2437.95,2468.21,2047,2022,13.482,0,0,0,0,
66,2371.79,2473.33,2381.54,2364.1,2366.67,2382.56,2452.82,2431.79,2487.69,2441.03,2425.13,2082.05,2435.9,2473.33,2046,2020,13.49,0,0,0,0,
67,2373.33,2474.87,2382.56,2367.69,2367.69,2385.64,2453.85,2436.92,2487.69,2441.54,2427.69,2085.64,2437.44,2474.36,2045,2022,13.498,0,0,0,0,
68,2374.36,2481.03,2386.67,2367.18,2368.21,2389.74,2456.92,2438.97,2489.74,2445.64,2424.62,2088.21,2442.05,2472.31,2046,2023,13.506,0,0,0,0,
69,2380,2482.56,2388.21,2368.21,2370.77,2389.74,2458.46,2440,2490.26,2451.28,2425.64,2088.21,2442.56,2476.41,2046,2023,13.51,0,0,0,0,
70,2383.59,2480.51,2390.77,2368.72,2373.33,2390.26,2458.97,2442.05,2493.33,2452.31,2430.26,2087.69,2440.51,2478.46,2045,2022,13.52,0,0,0,0,
71,2381.54,2482.05,2392.82,2367.69,2375.9,2393.33,2463.59,2442.05,2498.46,2451.28,2428.72,2087.18,2441.54,2475.38,2046,2024,13.53,0,0,0,0,
72,2381.54,2484.62,2393.85,2371.79,2380,2395.38,2467.18,2443.08,2498.97,2452.31,2430.77,2091.79,2448.72,2479.49,2045,2023,13.54,0,0,0,0,
73,2382.05,2485.13,2396.92,2378.46,2382.05,2395.9,2466.15,2443.08,2497.44,2454.87,2438.46,2098.46,2452.31,2485.64,2046,2022,13.54,0,0,0,0,
74,2382.05,2487.69,2398.97,2381.03,2382.56,2398.97,2466.67,2443.59,2498.46,2456.41,2437.95,2100.51,2450.77,2483.08,2047,2023,13.55,0,0,0,0,
75,2388.21,2489.74,2400,2381.03,2383.59,2403.08,2467.18,2448.21,2499.49,2456.41,2434.87,2098.97,2453.33,2483.59,2047,2023,13.56,0,0,0,0,
76,2392.31,2488.72,2402.05,2381.54,2385.13,2406.15,2466.67,2452.31,2502.05,2456.41,2440,2099.49,2454.87,2487.69,2047,2024,13.57,0,0,0,0,
77,2392.31,2488.21,2404.1,2382.05,2388.21,2403.59,2469.74,2451.28,2505.13,2457.44,2444.1,2101.54,2453.33,2489.23,2046,2024,13.58,0,0,0,0,
78,2396.92,2489.23,2404.1,2382.56,2389.23,2403.59,2473.33,2450.77,2505.64,2462.05,2440.51,2102.56,2454.87,2492.82,2046,2023,13.58,0,0,0,0,
79,2401.54,2487.69,2405.13,2384.1,2389.23,2409.74,2474.36,2454.36,2503.59,2466.67,2440.51,2104.1,2458.46,2493.33,2046,2023,13.59,0,0,0,0,
80,2398.46,2488.21,2407.69,2387.69,2391.79,2411.28,2473.33,2456.41,2504.62,2467.69,2446.15,2103.59,2457.95,2489.23,2046,2024,13.6,0,0,0,0,
81,2397.95,2495.38,2411.28,2392.31,2395.9,2408.72,2475.38,2457.44,2509.23,2469.23,2450.77,2104.62,2456.92,2493.33,2046,2023,13.61,0,0,0,0,
82,2404.1,2501.54,2413.85,2393.85,2397.95,2411.79,2480.51,2460.51,2512.82,2469.23,2451.79,2105.64,2462.05,2503.08,2047,2022,13.61,0,0,0,0,
83,2406.15,2499.49,2413.33,2395.9,2398.97,2418.97,2482.05,2465.64,2513.85,2467.18,2451.28,2106.67,2466.67,2502.56,2047,2022,13.62,0,0,0,0,
84,2405.64,2499.49,2412.31,2397.44,2400,2421.54,2482.05,2466.15,2514.36,2470.26,2452.31,2111.79,2468.21,2500,2046,2022,13.63,0,0,0,0,
85,2407.69,2505.13,2415.38,2398.46,2402.56,2418.97,2482.56,2464.1,2515.38,2474.87,2455.9,2116.41,2472.31,2504.1,2047,2023,13.64,0,0,0,0,
86,2411.79,2507.69,2420.51,2403.08,2406.15,2419.49,2484.1,2468.21,2513.85,2471.79,2458.46,2115.9,2475.9,2504.62,2046,2022,13.65,0,0,0,0,
87,2412.31,2504.62,2421.54,2406.67,2409.74,2423.59,2486.15,2470.77,2513.85,2471.79,2456.92,2114.87,2472.31,2504.1,2047,2022,13.65,0,0,0,0,
88,2412.82,2508.72,2420.51,2405.13,2410.26,2425.64,2487.69,2467.69,2517.44,2479.49,2455.9,2118.46,2472.82,2506.15,2047,2021,13.66,0,0,0,0,
89,2416.92,2512.82,2423.59,2405.13,2408.72,2427.69,2489.23,2468.21,2521.03,2483.08,2462.56,2121.03,2479.49,2507.18,2045,2023,13.67,0,0,0,0,
90,2420,2509.74,2427.69,2408.72,2410.26,2428.72,2489.74,2472.82,2521.54,2481.54,2467.18,2120,2478.46,2509.23,2046,2023,13.68,0,0,0,0,
91,2419.49,2509.74,2427.18,2412.31,2415.38,2430.26,2490.26,2476.92,2521.03,2485.64,2465.13,2119.49,2476.92,2513.85,2046,2023,13.69,0,0,0,0,
92,2421.03,2515.9,2429.74,2414.36,2418.97,2434.36,2494.36,2479.49,2523.59,2489.74,2464.62,2121.03,2481.03,2512.82,2046,2023,13.69,0,0,0,0,
93,2424.1,2514.87,2435.38,2413.85,2421.03,2438.46,2498.97,2482.56,2526.67,2489.23,2468.72,2120.51,2483.08,2510.26,2044,2023,13.7,0,0,0,0,
94,2424.62,2511.79,2436.41,2415.38,2421.03,2436.92,2499.49,2482.05,2527.69,2487.69,2468.72,2118.97,2483.59,2514.87,2047,2022,13.71,0,0,0,0,
95,2425.64,2517.44,2435.9,2420,2420.51,2435.9,2497.95,2480,2528.72,2489.23,2466.15,2125.64,2485.13,2520,2047,2023,13.72,0,0,0,0,
96,2429.23,2522.05,2439.49,2422.05,2423.59,2441.03,2500,2482.56,2532.31,2489.74,2471.79,2133.33,2488.72,2521.03,2047,2023,13.73,0,0,0,0,
97,2432.31,2521.03,2443.08,2422.05,2428.21,2442.05,2504.1,2486.67,2534.36,2488.72,2476.41,2133.33,2492.82,2518.46,2046,2024,13.73,0,0,0,0,
98,2434.87,2522.05,2441.54,2425.64,2430.26,2442.05,2506.15,2489.74,2532.82,2488.72,2473.33,2132.31,2493.33,2520,2047,2023,13.74,0,0,0,0,
99,2436.92,2523.08,2440.51,2429.74,2428.72,2447.18,2505.64,2490.26,2533.85,2493.85,2471.79,2135.38,2493.85,2525.13,2048,2024,13.75,0,0,0,0,
100,2439.49,2524.1,2446.67,2429.23,2430.26,2451.28,2503.59,2489.74,2537.44,2498.46,2477.44,2136.41,2497.95,2528.21,2044,2023,13.76,0,0,0,0,
101,2442.56,2527.69,2451.79,2429.74,2436.41,2451.28,2505.13,2490.26,2538.46,2498.97,2482.05,2135.38,2498.46,2528.72,2046,2024,13.76,0,0,0,0,
102,2442.56,2531.28,2452.82,2433.85,2439.49,2452.31,2511.28,2489.74,2537.95,2501.54,2482.05,2137.95,2496.41,2529.74,2046,2024,13.77,0,0,0,0,
103,2441.03,2529.23,2455.38,2437.95,2437.95,2454.36,2515.38,2490.77,2537.44,2505.13,2482.56,2136.92,2498.97,2528.72,2047,2024,13.78,0,0,0,0,
104,2444.62,2529.23,2457.95,2436.92,2438.97,2454.36,2515.38,2494.87,2538.97,2505.13,2484.1,2135.9,2502.05,2529.23,2047,2023,13.79,0,0,0,0,
105,2449.74,2532.82,2457.44,2434.87,2441.03,2456.92,2513.85,2501.54,2542.05,2505.13,2487.69,2142.56,2503.59,2533.85,2046,2022,13.8,0,0,0,0,
106,2450.77,2535.9,2457.95,2439.49,2441.54,2456.92,2516.41,2503.59,2545.13,2505.13,2489.23,2148.72,2506.15,2533.33,2047,2021,13.8,0,0,0,0,
107,2450.77,2536.92,2458.46,2443.08,2443.59,2455.38,2520.51,2500.51,2547.18,2506.15,2490.77,2146.67,2505.64,2530.77,2048,2022,13.81,0,0,0,0,
108,2451.79,2536.92,2459.49,2440.51,2445.64,2459.49,2522.05,2502.05,2545.64,2511.28,2489.74,2146.67,2505.13,2535.9,2047,2022,13.82,0,0,0,0,
109,2453.85,2538.97,2464.62,2440,2448.21,2465.13,2521.03,2506.67,2548.21,2515.9,2489.74,2152.82,2510.26,2540,2046,2020,13.83,0,0,0,0,
110,2456.92,2542.05,2467.18,2445.13,2451.28,2468.21,2520.51,2508.21,2555.9,2513.85,2494.36,2153.85,2514.36,2539.49,2046,2022,13.84,0,0,0,0,
111,2458.46,2544.62,2465.64,2449.74,2452.82,2466.15,2524.1,2506.15,2559.49,2513.85,2498.97,2152.31,2512.31,2541.54,2045,2022,13.84,0,0,0,0,
112,2456.41,2546.15,2468.21,2451.28,2453.85,2465.64,2527.18,2505.13,2556.41,2522.05,2498.46,2151.79,2512.82,2547.18,2046,2022,13.85,0,0,0,0,
113,2454.87,2545.13,2472.82,2453.33,2457.44,2470.26,2528.72,2509.23,2556.41,2525.64,2498.46,2151.79,2515.9,2546.67,2046,2023,13.86,0,0,0,0,
114,2460.51,2545.13,2474.87,2457.95,2458.97,2474.36,2530.26,2514.36,2560,2521.03,2504.1,2153.85,2516.92,2544.1,2045,2023,13.87,0,0,0,0,
115,2467.69,2548.21,2473.33,2458.97,2455.38,2473.85,2530.26,2515.9,2560,2520,2505.64,2153.85,2517.95,2547.18,2046,2023,13.87,0,0,0,0,
116,2465.64,2547.18,2471.28,2456.92,2457.44,2473.33,2531.79,2514.36,2557.95,2525.64,2504.1,2152.82,2520,2548.21,2046,2022,13.88,0,0,0,0,
117,2464.62,2547.18,2476.92,2460.51,2464.1,2472.31,2531.28,2517.44,2558.97,2527.69,2504.1,2156.92,2521.03,2544.1,2046,2022,13.89,0,0,0,0,
118,2473.33,2554.87,2483.08,2467.69,2466.15,2472.31,2530.26,2522.05,2564.1,2527.69,2505.64,2163.59,2523.59,2548.72,2047,2022,13.9,0,0,0,0,
119,2476.92,2559.49,2482.56,2469.23,2464.62,2477.44,2536.41,2522.56,2563.59,2530.26,2509.23,2163.59,2526.67,2556.92,2047,2022,13.91,0,0,0,0,
120,2471.28,2557.44,2483.08,2467.69,2465.64,2482.05,2543.59,2522.05,2560.51,2532.31,2514.36,2163.59,2527.69,2555.38,2047,2023,13.91,0,0,0,0,
121,2473.85,2558.46,2486.67,2467.69,2470.77,2484.62,2544.1,2524.1,2568.72,2531.28,2515.38,2167.18,2530.26,2553.85,2045,2022,13.92,0,0,0,0,
122,2482.05,2562.05,2488.72,2471.79,2474.36,2489.23,2542.05,2527.18,2576.92,2531.28,2514.87,2167.69,2533.85,2560.51,2045,2024,13.93,0,0,0,0,
123,2483.08,2562.05,2489.23,2474.87,2472.82,2491.28,2542.56,2528.21,2573.33,2531.79,2514.36,2166.67,2530.26,2562.05,2046,2025,13.94,0,0,0,0,
124,2481.03,2563.08,2490.26,2474.36,2473.85,2487.69,2544.62,2530.26,2572.31,2533.85,2515.9,2167.69,2531.28,2560,2046,2023,13.95,0,0,0,0,
125,2483.08,2562.56,2489.74,2477.44,2480.51,2488.21,2546.15,2531.28,2577.44,2538.46,2520.51,2168.21,2538.97,2562.56,2046,2023,13.95,0,0,0,0,
126,2486.67,2564.1,2493.85,2483.08,2483.08,2495.38,2546.15,2531.28,2577.44,2540.51,2523.59,2168.72,2540.51,2563.08,2046,2022,13.96,0,0,0,0,
127,2488.72,2570.26,2498.97,2482.05,2481.54,2498.46,2546.15,2533.85,2575.9,2541.54,2521.03,2169.74,2537.95,2561.54,2047,2023,13.97,0,0,0,0,
128,2490.26,2573.33,2498.97,2480,2483.59,2497.44,2546.67,2537.95,2576.41,2544.1,2521.54,2168.72,2542.05,2563.08,2047,2023,13.98,0,0,0,0,
0,2488.72,2572.31,2496.92,2483.08,2485.13,2496.41,2546.67,2537.44,2575.9,2543.59,2524.1,2170.77,2546.15,2564.1,2046,2023,13.99,0,0,0,0,
1,2488.72,2572.82,2500,2486.15,2485.13,2499.49,2552.82,2535.9,2577.95,2544.62,2526.15,2176.41,2545.13,2567.69,2046,2021,13.99,0,0,0,0,
2,2495.38,2573.85,2504.62,2487.69,2488.21,2504.1,2560,2538.97,2580,2547.69,2529.23,2181.03,2545.13,2573.85,2045,2021,14,0,0,0,0,
3,2494.87,2573.33,2505.64,2490.26,2490.26,2505.13,2558.97,2543.59,2577.44,2547.18,2531.28,2184.1,2547.69,2575.38,2045,2023,14.01,0,0,0,0,
4,2490.26,2575.38,2504.1,2489.23,2489.23,2504.62,2557.95,2542.05,2579.49,2551.28,2529.74,2185.13,2547.69,2573.33,2047,2025,14.02,0,0,0,0,
5,2494.87,2577.44,2506.15,2490.26,2492.31,2504.1,2561.03,2543.08,2588.21,2558.97,2527.69,2183.59,2545.13,2574.87,2047,2023,14.02,0,0,0,0,
6,2501.54,2575.9,2513.33,2495.9,2498.97,2505.13,2559.49,2548.72,2591.79,2557.95,2530.77,2184.1,2550.26,2577.44,2047,2023,14.03,0,0,0,0,
7,2498.97,2575.9,2515.9,2500.51,2500,2505.64,2556.92,2547.18,2589.74,2555.38,2537.44,2185.64,2557.44,2578.46,2046,2021,14.04,0,0,0,0,
8,2500,2577.44,2512.82,2500.51,2497.44,2508.21,2561.54,2546.67,2590.26,2558.46,2537.95,2185.13,2554.87,2578.46,2046,2021,14.05,0,0,0,0,
9,2505.64,2580,2513.33,2498.46,2500.51,2512.82,2564.62,2556.41,2591.28,2560.51,2537.95,2187.18,2554.87,2577.44,2047,2024,14.06,0,0,0,0,
10,2505.13,2580.51,2515.38,2499.49,2504.62,2515.9,2563.08,2561.03,2590.26,2558.97,2541.54,2191.28,2560.51,2581.54,2048,2023,14.06,0,0,0,0,
11,2504.62,2576.92,2515.9,2502.56,2505.13,2515.38,2566.67,2557.44,2592.31,2557.95,2544.1,2190.77,2560,2588.72,2047,2022,14.07,0,0,0,0,
12,2508.72,2580,2518.97,2506.67,2505.13,2517.44,2574.87,2557.95,2595.9,2561.03,2542.56,2187.69,2558.97,2590.26,2046,2022,14.08,0,0,0,0,
13,2514.36,2588.21,2522.56,2505.13,2506.67,2522.05,2574.87,2560.51,2595.9,2564.1,2541.54,2191.79,2562.56,2589.74,2045,2024,14.09,0,0,0,0,
14,2516.41,2591.28,2522.56,2504.1,2511.79,2523.08,2572.31,2557.95,2593.85,2563.08,2545.13,2201.03,2564.62,2590.77,2046,2023,14.1,0,0,0,0,
15,2512.82,2589.74,2522.05,2509.74,2515.38,2523.59,2573.85,2557.44,2595.9,2567.69,2547.18,2203.08,2563.08,2590.26,2046,2023,14.1,0,0,0,0,
16,2514.87,2590.77,2525.13,2515.38,2514.87,2526.67,2577.44,2560.51,2603.08,2575.38,2546.67,2198.46,2565.64,2588.72,2045,2021,14.11,0,0,0,0,
17,2523.08,2592.31,2530.26,2515.38,2516.41,2528.72,2578.97,2563.08,2607.18,2575.38,2552.82,2197.95,2571.79,2589.74,2045,2022,14.12,0,0,0,0,
18,2524.62,2590.77,2531.79,2513.85,2521.03,2530.26,2578.97,2562.56,2606.67,2572.31,2560,2202.05,2574.87,2592.31,2047,2022,14.13,0,0,0,0,
19,2520,2593.85,2530.26,2516.41,2522.05,2531.28,2579.49,2561.54,2606.67,2575.38,2558.97,2201.03,2575.38,2592.82,2047,2020,14.13,0,0,0,0,
20,2524.1,2596.92,2532.82,2520,2521.54,2530.26,2578.97,2566.67,2607.18,2576.41,2556.92,2198.46,2576.41,2596.41,2046,2023,14.14,0,0,0,0,
21,2531.28,2593.85,2537.95,2520.51,2522.56,2531.79,2580,2574.36,2607.69,2575.9,2558.97,2202.05,2575.38,2600,2046,2022,14.15,0,0,0,0,
22,2531.28,2596.41,2537.44,2520.51,2524.1,2537.95,2585.64,2575.9,2607.69,2578.46,2558.97,2206.67,2574.36,2600,2046,2023,14.16,0,0,0,0,
23,2529.74,2604.62,2536.41,2522.05,2527.18,2537.95,2591.28,2573.85,2607.18,2580.51,2558.46,2206.67,2577.95,2601.54,2046,2023,14.17,0,0,0,0,
24,2528.72,2606.67,2541.54,2525.13,2530.77,2536.92,2590.26,2573.85,2609.23,2577.44,2560,2207.69,2578.46,2607.18,2046,2021,14.17,0,0,0,0,
25,2532.82,2604.62,2544.1,2528.21,2531.79,2541.03,2588.72,2575.9,2611.28,2578.97,2561.03,2214.87,2583.08,2608.72,2046,2021,14.18,0,0,0,0,
26,2541.54,2606.67,2542.05,2530.26,2530.77,2543.59,2591.79,2577.44,2613.85,2587.69,2564.1,2217.95,2590.26,2605.13,2046,2023,14.19,0,0,0,0,
27,2540.51,2608.72,2544.1,2530.77,2529.74,2543.08,2594.36,2579.49,2619.49,2591.79,2564.1,2215.38,2586.67,2606.15,2046,2023,14.2,0,0,0,0,
28,2535.9,2607.69,2549.23,2531.28,2532.31,2545.13,2595.38,2580.51,2622.56,2589.74,2564.1,2214.36,2584.62,2607.69,2045,2022,14.21,0,0,0,0,
29,2540,2608.72,2547.18,2530.77,2537.44,2547.69,2594.36,2578.97,2620.51,2589.74,2569.23,2215.9,2589.74,2607.18,2046,2022,14.21,0,0,0,0,
30,2544.1,2611.28,2547.18,2532.82,2539.49,2546.67,2595.38,2579.49,2620.51,2591.28,2575.38,2214.87,2591.28,2608.21,2047,2022,14.22,0,0,0,0,
31,2541.54,2611.79,2555.9,2536.41,2541.03,2547.18,2601.03,2585.64,2623.08,2592.31,2574.87,2213.85,2588.72,2609.74,2046,2021,14.23,0,0,0,0,
32,2543.08,2610.26,2557.95,2538.46,2544.1,2553.33,2605.64,2590.77,2623.08,2594.87,2573.33,2218.97,2589.74,2610.77,2047,2024,14.24,0,0,0,0,
33,2548.72,2614.36,2554.36,2540,2546.67,2557.95,2605.13,2590.26,2623.59,2595.38,2574.87,2223.08,2592.82,2612.82,2045,2023,14.25,0,0,0,0,
34,2548.21,2621.54,2556.41,2542.56,2547.69,2558.46,2603.08,2589.23,2623.59,2593.33,2576.41,2221.54,2594.87,2617.95,2046,2023,14.25,0,0,0,0,
35,2547.18,2622.05,2561.54,2544.62,2544.62,2558.46,2604.1,2592.31,2625.13,2596.92,2577.44,2221.03,2595.38,2622.56,2047,2022,14.26,0,0,0,0,
36,2553.33,2621.03,2562.56,2546.67,2546.15,2557.95,2607.18,2592.31,2627.69,2603.59,2580,2222.56,2600.51,2622.05,2047,2022,14.27,0,0,0,0,
37,2560,2623.08,2562.56,2546.67,2556.41,2557.95,2609.23,2592.31,2626.15,2606.67,2579.49,2227.69,2606.67,2620.51,2046,2023,14.28,0,0,0,0,
38,2557.95,2623.08,2563.59,2546.15,2556.92,2561.03,2609.74,2595.38,2627.18,2605.13,2578.97,2235.38,2606.15,2622.05,2046,2024,14.28,0,0,0,0,
39,2556.41,2622.05,2562.56,2552.31,2552.82,2563.59,2609.23,2595.9,2634.36,2606.15,2585.13,2237.95,2604.1,2625.13,2047,2024,14.29,0,0,0,0,
40,2561.54,2625.13,2565.13,2558.97,2556.92,2564.1,2608.72,2597.95,2637.95,2607.69,2591.28,2235.38,2606.67,2625.13,2047,2021,14.3,0,0,0,0,
41,2561.54,2628.21,2571.79,2556.92,2561.03,2563.08,2610.26,2604.62,2636.92,2608.21,2590.26,2235.9,2608.21,2625.13,2046,2022,14.31,0,0,0,0,
42,2558.97,2625.64,2576.92,2555.9,2557.44,2562.05,2612.31,2608.21,2638.97,2607.69,2589.74,2238.97,2606.67,2632.31,2046,2023,14.32,0,0,0,0,
43,2561.03,2625.13,2574.87,2557.95,2558.46,2568.72,2611.79,2607.18,2640,2607.18,2591.28,2238.46,2606.15,2635.38,2046,2023,14.32,0,0,0,0,
44,2564.62,2632.82,2573.33,2559.49,2563.08,2575.9,2613.33,2607.69,2637.95,2610.26,2589.74,2237.95,2607.69,2631.79,2046,2022,14.33,0,0,0,0,
45,2565.64,2638.46,2574.36,2561.03,2563.59,2574.87,2618.97,2608.21,2640.51,2612.82,2589.74,2237.95,2612.31,2633.85,2046,2022,14.34,0,0,0,0,
46,2563.08,2635.9,2574.36,2562.56,2561.54,2573.85,2621.54,2606.15,2642.05,2610.77,2591.79,2237.95,2612.31,2638.46,2046,2024,14.35,0,0,0,0,
47,2564.1,2634.36,2576.92,2562.56,2562.56,2578.46,2620,2607.18,2639.49,2612.82,2593.85,2237.44,2611.79,2637.44,2046,2021,14.36,0,0,0,0,
48,2570.77,2637.95,2578.97,2562.05,2569.74,2578.97,2621.54,2610.26,2642.05,2620.51,2595.38,2237.44,2616.92,2636.41,2046,2022,14.36,0,0,0,0,
49,2575.38,2640.51,2580,2563.08,2576.41,2577.95,2624.1,2611.79,2649.74,2624.1,2594.87,2240.51,2621.54,2638.46,2047,2023,14.37,0,0,0,0,
50,2573.85,2639.49,2585.13,2569.23,2574.87,2578.97,2623.59,2615.38,2653.33,2623.08,2596.92,2240.51,2621.54,2638.97,2047,2023,14.38,0,0,0,0,
51,2573.85,2640.51,2589.74,2573.85,2572.82,2578.97,2623.08,2621.03,2651.79,2623.59,2604.1,2237.44,2622.05,2637.44,2047,2023,14.39,0,0,0,0,
52,2575.9,2640,2590.26,2573.85,2575.9,2582.56,2627.18,2621.54,2653.33,2624.62,2607.18,2243.08,2623.59,2640,2047,2025,14.4,0,0,0,0,
53,2576.92,2639.49,2589.74,2573.85,2579.49,2589.74,2628.72,2620,2655.38,2623.59,2604.1,2252.82,2622.56,2649.23,2046,2024,14.4,0,0,0,0,
54,2578.46,2646.67,2589.74,2575.9,2578.97,2591.28,2625.64,2622.05,2654.36,2624.1,2605.13,2253.85,2623.59,2650.26,2047,2022,14.41,0,0,0,0,
55,2578.46,2653.33,2589.74,2578.46,2576.92,2591.28,2629.23,2624.1,2653.85,2627.18,2608.21,2250.77,2626.15,2640,2044,2024,14.42,0,0,0,0,
56,2581.03,2652.31,2594.36,2578.97,2577.95,2592.31,2636.41,2622.56,2654.87,2628.72,2607.69,2252.82,2627.18,2641.03,2045,2024,14.43,0,0,0,0,
57,2587.69,2651.79,2595.38,2578.46,2584.1,2590.26,2637.95,2622.05,2655.38,2628.72,2607.69,2254.36,2631.28,2653.33,2047,2023,14.43,0,0,0,0,
58,2589.23,2653.85,2595.38,2582.05,2589.74,2589.23,2636.92,2624.62,2656.41,2632.82,2607.69,2253.85,2637.44,2656.41,2047,2024,14.44,0,0,0,0,
59,2589.23,2651.79,2604.1,2588.21,2591.28,2595.9,2637.44,2629.74,2658.46,2637.44,2609.23,2254.87,2638.46,2653.33,2046,2022,14.45,0,0,0,0,
60,2591.79,2651.79,2606.15,2589.74,2591.28,2595.9,2638.46,2628.21,2660.51,2635.9,2615.9,2253.85,2636.41,2655.9,2046,2020,14.46,0,0,0,0,
61,2592.82,2654.36,2597.95,2589.74,2591.79,2592.82,2639.49,2625.13,2657.95,2636.41,2621.03,2253.33,2638.46,2655.38,2046,2021,14.47,0,0,0,0,
62,2592.82,2655.9,2599.49,2591.28,2590.77,2600,2641.54,2630.77,2657.95,2641.54,2621.03,2254.36,2640.51,2653.85,2045,2022,14.47,0,0,0,0,
63,2595.38,2657.95,2609.23,2591.79,2592.82,2608.21,2642.56,2636.92,2665.13,2642.05,2620.51,2256.92,2639.49,2660,2046,2021,14.48,0,0,0,0,
64,2595.38,2656.41,2608.21,2591.79,2597.44,2606.15,2640,2638.46,2669.74,2641.54,2622.56,2255.9,2639.49,2662.56,2046,2022,14.49,0,0,0,0,
65,2596.92,2658.46,2606.15,2591.79,2594.36,2605.13,2641.03,2640.51,2668.72,2642.05,2623.59,2253.33,2639.49,2661.03,2046,2020,14.5,0,0,0,0,
66,2602.05,2666.67,2609.23,2593.85,2593.85,2607.69,2650.26,2641.03,2668.21,2640,2624.1,2260,2641.54,2662.56,2046,2022,14.51,0,0,0,0,
67,2604.62,2668.72,2608.21,2594.36,2601.03,2606.67,2654.87,2639.49,2670.77,2644.62,2624.62,2270.26,2648.21,2663.08,2045,2021,14.51,0,0,0,0,
68,2604.62,2665.64,2611.28,2595.9,2605.13,2606.67,2652.31,2639.49,2672.31,2652.31,2624.1,2271.28,2652.82,2664.1,2046,2024,14.52,0,0,0,0,
69,2607.18,2667.69,2615.9,2602.56,2604.62,2610.77,2652.82,2641.54,2673.33,2652.82,2625.64,2268.21,2651.79,2669.23,2047,2024,14.53,0,0,0,0,
70,2608.72,2668.72,2613.85,2607.18,2605.64,2611.79,2656.41,2640.51,2672.31,2650.77,2625.64,2269.23,2651.28,2670.26,2045,2023,14.54,0,0,0,0,
71,2606.67,2668.21,2615.9,2605.64,2607.18,2614.36,2654.87,2641.54,2671.79,2653.85,2628.72,2270.77,2652.82,2666.67,2047,2023,14.54,0,0,0,0,
72,2605.64,2670.77,2622.05,2606.15,2607.69,2620,2653.85,2647.69,2677.95,2656.41,2634.87,2271.28,2653.85,2669.74,2046,2023,14.55,0,0,0,0,
73,2607.18,2671.28,2622.56,2608.21,2610.77,2621.54,2654.87,2652.82,2682.05,2657.44,2636.92,2271.79,2652.82,2671.79,2046,2024,14.56,0,0,0,0,
74,2609.23,2670.26,2622.05,2606.67,2613.33,2622.05,2658.46,2652.82,2681.03,2656.41,2636.41,2270.77,2653.33,2671.79,2046,2022,14.57,0,0,0,0,
75,2612.31,2671.28,2624.1,2608.21,2610.26,2623.59,2665.64,2650.77,2682.56,2655.9,2638.46,2270.26,2655.9,2673.85,2046,2024,14.58,0,0,0,0,
76,2616.41,2676.41,2623.08,2612.31,2611.28,2624.1,2668.72,2650.77,2685.13,2657.95,2640.51,2272.31,2655.9,2671.79,2046,2024,14.58,0,0,0,0,
77,2621.54,2683.59,2624.62,2610.77,2618.97,2622.56,2668.21,2654.36,2683.59,2659.49,2639.49,2272.31,2656.92,2672.31,2046,2022,14.59,0,0,0,0,
78,2623.08,2685.13,2628.72,2611.28,2623.08,2623.08,2667.69,2656.92,2684.62,2662.56,2640,2270.77,2664.62,2679.49,2045,2023,14.6,0,0,0,0,
79,2623.59,2683.08,2626.67,2617.95,2619.49,2627.18,2667.18,2654.87,2685.64,2668.21,2641.03,2276.41,2670.26,2685.64,2047,2022,14.61,0,0,0,0,
80,2624.1,2684.62,2627.18,2622.05,2620,2628.72,2666.67,2654.36,2686.67,2669.23,2639.49,2286.15,2668.72,2683.59,2046,2023,14.62,0,0,0,0,
81,2623.59,2686.67,2633.33,2620.51,2623.59,2627.18,2668.21,2658.46,2687.69,2666.15,2638.97,2287.69,2667.18,2682.05,2047,2023,14.62,0,0,0,0,
82,2624.62,2685.64,2637.44,2622.05,2624.1,2632.31,2670.26,2659.49,2687.69,2666.67,2647.18,2283.08,2670.77,2684.62,2045,2023,14.63,0,0,0,0,
83,2628.72,2684.62,2637.95,2625.13,2623.59,2638.97,2670.26,2661.03,2694.36,2669.23,2654.87,2283.08,2671.28,2684.62,2046,2022,14.64,0,0,0,0,
84,2628.72,2685.13,2638.97,2623.59,2622.05,2635.38,2672.31,2667.18,2703.08,2670.26,2653.85,2286.67,2668.72,2684.62,2047,2023,14.65,0,0,0,0,
85,2625.13,2688.21,2638.97,2623.59,2627.69,2632.82,2671.79,2669.23,2701.54,2670.77,2652.31,2288.21,2671.28,2688.21,2047,2022,14.66,0,0,0,0,
86,2629.74,2687.69,2640.51,2627.18,2632.31,2639.49,2672.31,2667.69,2697.95,2671.79,2654.87,2286.15,2673.33,2688.21,2046,2022,14.66,0,0,0,0,
87,2637.44,2686.15,2644.1,2627.69,2629.74,2640.51,2678.97,2669.74,2700.51,2671.79,2655.38,2284.62,2671.28,2685.64,2045,2023,14.67,0,0,0,0,
88,2637.95,2693.85,2643.08,2625.64,2631.79,2636.92,2685.13,2671.79,2701.54,2672.31,2655.9,2287.18,2674.36,2693.33,2046,2022,14.68,0,0,0,0,
89,2636.41,2702.56,2642.05,2630.26,2637.95,2640,2684.62,2670.77,2700,2678.97,2656.41,2289.23,2684.1,2700.51,2047,2022,14.69,0,0,0,0,
90,2638.46,2701.54,2649.23,2637.95,2638.46,2642.56,2683.59,2671.28,2701.03,2686.15,2656.92,2286.67,2685.13,2696.41,2046,2022,14.69,0,0,0,0,
91,2640,2698.97,2655.38,2635.9,2637.95,2644.62,2685.64,2670.77,2702.56,2686.67,2656.92,2288.72,2680.51,2696.41,2046,2023,14.7,0,0,0,0,
92,2640,2700.51,2651.79,2633.85,2640.51,2650.26,2687.18,2669.74,2705.13,2684.62,2654.87,2295.9,2681.03,2701.54,2046,2023,14.71,0,0,0,0,
93,2640,2700.51,2648.72,2638.46,2640.51,2652.82,2686.67,2676.92,2704.62,2685.13,2659.49,2300,2681.54,2701.03,2047,2021,14.72,0,0,0,0,
94,2641.54,2699.49,2652.82,2640,2641.03,2651.79,2686.67,2684.62,2705.13,2685.13,2668.21,2300.51,2681.03,2699.49,2046,2023,14.73,0,0,0,0,
95,2642.05,2701.03,2655.38,2640,2642.56,2652.82,2687.69,2684.1,2712.31,2685.13,2669.74,2301.03,2685.13,2701.03,2045,2022,14.73,0,0,0,0,
96,2643.59,2703.08,2653.33,2641.54,2646.67,2653.85,2688.21,2682.05,2717.44,2684.62,2667.18,2301.03,2688.21,2700.51,2045,2023,14.74,0,0,0,0,
97,2649.23,2703.59,2655.38,2643.08,2652.31,2653.85,2687.18,2683.59,2713.85,2685.64,2668.21,2300.51,2687.69,2702.05,2046,2022,14.75,0,0,0,0,
98,2652.82,2704.1,2658.97,2647.69,2651.79,2656.41,2692.82,2685.64,2713.85,2688.21,2668.72,2303.59,2685.13,2701.54,2045,2022,14.76,0,0,0,0,
99,2653.85,2703.59,2657.95,2652.82,2650.26,2656.41,2701.54,2685.64,2716.41,2689.23,2667.69,2302.05,2685.64,2700.51,2045,2023,14.77,0,0,0,0,
100,2654.87,2705.13,2660,2653.33,2652.31,2655.9,2700.51,2687.18,2714.87,2693.33,2671.79,2299.49,2692.31,2709.23,2046,2022,14.77,0,0,0,0,
101,2655.38,2713.33,2668.72,2653.85,2655.38,2660.51,2698.46,2700,2730.26,2712.82,2686.15,2310.26,2707.69,2722.05,2046,2022,14.78,0,0,0,0,
102,2657.95,2719.49,2672.82,2656.41,2655.38,2665.64,2701.54,2717.95,2754.36,2736.41,2701.54,2319.49,2719.49,2732.82,2046,2023,14.79,0,0,0,0,
103,2662.56,2717.44,2669.74,2656.92,2655.9,2666.67,2703.59,2722.56,2758.46,2741.54,2703.59,2320,2721.54,2736.92,2046,2023,14.8,0,0,0,0,
104,2660.51,2715.9,2668.72,2654.87,2654.87,2668.72,2703.59,2715.38,2746.15,2732.82,2698.46,2326.15,2720,2733.33,2045,2023,14.8,0,0,0,0,
105,2659.49,2717.95,2672.82,2655.9,2657.95,2669.74,2704.62,2718.97,2750.26,2734.87,2701.03,2334.36,2725.64,2734.87,2046,2023,14.81,0,0,0,0,
106,2666.67,2717.44,2673.33,2659.49,2666.15,2669.23,2706.15,2730.26,2762.56,2747.18,2705.64,2334.36,2733.33,2738.46,2046,2022,14.82,0,0,0,0,
107,2670.77,2716.92,2669.74,2664.1,2670.77,2669.74,2705.13,2731.79,2761.03,2748.72,2703.59,2339.49,2733.33,2736.41,2047,2022,14.83,0,0,0,0,
108,2668.72,2717.95,2673.85,2666.67,2668.72,2672.31,2704.1,2728.72,2757.95,2745.13,2704.1,2350.26,2730.77,2738.97,2046,2022,14.84,0,0,0,0,
109,2668.21,2718.97,2683.59,2668.72,2668.21,2673.33,2710.26,2730.77,2758.46,2747.69,2708.21,2354.36,2734.36,2745.64,2045,2023,14.84,0,0,0,0,
110,2671.28,2722.56,2685.64,2669.74,2670.77,2671.28,2718.46,2735.38,2764.62,2755.38,2714.36,2361.54,2740,2749.23,2046,2021,14.85,0,0,0,0,
111,2673.85,2728.72,2683.08,2668.21,2671.79,2674.36,2717.44,2737.44,2772.82,2758.97,2720.51,2373.33,2741.03,2751.79,2046,2024,14.86,0,0,0,0,
112,2672.82,2732.82,2685.13,2667.69,2670.77,2682.05,2715.38,2733.85,2769.23,2752.31,2719.49,2378.97,2734.87,2750.77,2046,2023,14.87,0,0,0,0,
113,2676.41,2731.79,2684.62,2668.21,2670.77,2684.62,2717.95,2730.26,2761.03,2746.15,2715.38,2383.59,2730.26,2742.56,2046,2024,14.88,0,0,0,0,
114,2684.62,2731.28,2682.56,2671.28,2672.31,2682.56,2718.97,2733.85,2765.64,2751.79,2716.92,2393.85,2737.44,2744.62,2046,2023,14.88,0,0,0,0,
115,2685.13,2732.82,2685.13,2673.33,2671.28,2684.1,2716.92,2737.95,2771.79,2754.36,2719.49,2403.08,2747.69,2753.33,2046,2022,14.89,0,0,0,0,
116,2682.05,2732.31,2689.74,2671.28,2673.33,2686.15,2717.44,2734.36,2765.13,2751.79,2716.41,2407.18,2748.21,2751.28,2046,2024,14.9,0,0,0,0,
117,2684.62,2732.31,2688.21,2674.87,2682.05,2685.64,2718.46,2733.33,2766.67,2759.49,2716.41,2412.31,2748.72,2748.21,2045,2022,14.91,0,0,0,0,
118,2686.15,2732.82,2689.23,2684.1,2685.64,2685.64,2716.92,2740.51,2774.87,2764.1,2720,2420.51,2750.77,2751.79,2046,2023,14.92,0,0,0,0,
119,2684.62,2733.85,2697.44,2685.13,2683.59,2688.72,2717.95,2745.13,2772.31,2762.05,2720.51,2427.69,2749.74,2754.36,2047,2023,14.92,0,0,0,0,
120,2684.1,2734.36,2702.05,2680,2685.13,2688.21,2725.13,2745.13,2773.33,2765.13,2718.46,2435.9,2749.74,2753.85,2046,2024,14.93,0,0,0,0,
121,2686.15,2732.82,2699.49,2682.56,2686.67,2686.67,2731.28,2743.59,2777.95,2768.21,2720,2447.69,2750.26,2752.82,2046,2023,14.94,0,0,0,0,
122,2690.26,2734.87,2698.97,2688.21,2686.67,2693.33,2733.33,2743.08,2778.46,2766.67,2726.67,2461.03,2751.28,2752.82,2046,2022,14.95,0,0,0,0,
123,2690.26,2741.54,2702.05,2686.15,2687.18,2701.54,2733.85,2743.59,2779.49,2766.67,2732.31,2472.31,2756.41,2759.49,2046,2022,14.95,0,0,0,0,
124,2689.74,2744.62,2700.51,2685.64,2687.69,2700,2733.85,2751.28,2784.1,2769.23,2733.33,2488.72,2760,2764.62,2046,2024,14.96,0,0,0,0,
125,2697.95,2745.13,2701.54,2690.26,2687.69,2698.46,2732.82,2759.49,2789.23,2775.9,2736.41,2511.79,2764.62,2766.67,2045,2023,14.97,0,0,0,0,
126,2702.56,2748.21,2703.59,2689.74,2687.69,2702.05,2732.82,2755.9,2787.69,2780,2734.36,2530.26,2764.1,2767.18,2046,2021,14.98,0,0,0,0,
127,2698.97,2749.74,2703.08,2688.72,2691.28,2702.05,2732.31,2750.77,2774.36,2767.69,2719.49,2537.95,2752.31,2756.41,2046,2022,14.99,0,0,0,0,
128,2698.46,2748.72,2702.56,2695.38,2699.49,2700.51,2731.79,2746.15,2763.59,2753.33,2711.28,2542.05,2746.67,2746.67,2047,2022,14.99,0,0,0,0,
0,2701.03,2749.23,2704.1,2701.03,2702.56,2702.05,2732.82,2736.92,2763.59,2748.72,2715.38,2549.23,2750.77,2751.79,2047,2022,15,0,0,0,0,
1,2701.54,2748.72,2709.74,2701.03,2698.97,2703.59,2731.79,2732.31,2765.64,2748.72,2718.97,2558.46,2750.26,2757.95,2046,2021,15.01,0,0,0,0,
2,2702.56,2748.21,2715.38,2700.51,2698.97,2702.05,2731.79,2732.31,2763.08,2747.69,2718.46,2567.18,2747.69,2753.85,2046,2020,15.02,0,0,0,0,
3,2703.59,2750.26,2716.92,2701.03,2701.03,2701.03,2735.38,2734.36,2764.62,2747.69,2724.1,2573.33,2749.74,2752.82,2046,2022,15.03,0,0,0,0,
4,2704.1,2749.74,2716.41,2700,2701.54,2709.74,2738.97,2743.08,2764.62,2749.74,2732.31,2580,2749.74,2755.9,2046,2023,15.03,0,0,0,0,
5,2705.64,2749.23,2715.38,2700,2700.51,2717.95,2743.59,2750.77,2763.08,2748.72,2734.36,2588.72,2749.74,2755.9,2046,2022,15.04,0,0,0,0,
6,2703.08,2756.92,2715.38,2702.05,2700.51,2715.9,2749.23,2748.72,2764.62,2749.74,2731.79,2595.38,2750.26,2758.97,2046,2021,15.05,0,0,0,0,
7,2705.13,2761.03,2716.41,2704.62,2702.05,2714.36,2750.77,2746.67,2767.18,2755.38,2731.28,2603.08,2749.23,2764.1,2045,2021,15.06,0,0,0,0,
8,2714.87,2760,2717.95,2703.08,2704.1,2717.44,2749.23,2749.23,2767.18,2757.95,2732.82,2613.85,2750.26,2765.13,2046,2023,15.06,0,0,0,0,
9,2718.97,2762.05,2716.92,2704.62,2710.77,2715.9,2750.26,2748.72,2766.67,2756.41,2732.31,2621.54,2755.38,2765.13,2045,2023,15.07,0,0,0,0,
10,2715.9,2764.62,2716.92,2713.85,2717.95,2714.87,2749.74,2748.21,2771.28,2756.41,2732.31,2627.18,2762.56,2765.13,2046,2021,15.08,0,0,0,0,
11,2716.41,2763.59,2720,2718.46,2716.41,2717.44,2748.72,2749.23,2775.38,2758.46,2733.33,2633.33,2765.64,2765.13,2044,2024,15.09,0,0,0,0,
12,2717.95,2765.13,2718.97,2714.87,2714.36,2716.92,2748.21,2750.77,2771.79,2761.03,2734.87,2638.97,2766.15,2764.1,2046,2024,15.1,0,0,0,0,
13,2715.9,2766.67,2720,2714.87,2717.44,2717.95,2748.21,2750.26,2771.28,2764.1,2735.38,2645.64,2766.15,2766.15,2047,2024,15.1,0,0,0,0,
14,2716.92,2763.59,2727.69,2717.44,2718.97,2718.97,2751.28,2749.74,2778.97,2765.13,2734.36,2652.31,2767.18,2766.67,2046,2024,15.11,0,0,0,0,
15,2719.49,2764.62,2732.82,2716.92,2716.92,2720,2754.36,2751.28,2782.05,2764.1,2738.97,2658.46,2766.15,2765.13,2045,2024,15.12,0,0,0,0,
16,2717.95,2767.18,2731.28,2716.92,2716.92,2727.18,2758.97,2750.26,2779.49,2764.1,2747.69,2665.13,2766.15,2768.72,2046,2023,15.13,0,0,0,0,
17,2720.51,2765.64,2732.82,2717.44,2718.46,2733.33,2763.59,2749.74,2780,2764.62,2750.26,2673.33,2765.13,2770.26,2045,2022,15.14,0,0,0,0,
18,2729.23,2766.15,2736.92,2717.95,2717.44,2731.79,2764.62,2755.38,2781.54,2765.64,2748.72,2680,2765.13,2771.28,2046,2023,15.14,0,0,0,0,
19,2733.85,2770.77,2735.9,2721.03,2716.41,2730.26,2763.59,2757.95,2780.51,2765.13,2749.23,2685.13,2768.72,2775.38,2048,2022,15.15,0,0,0,0,
20,2731.79,2772.31,2734.87,2721.54,2723.59,2731.79,2764.62,2757.44,2781.54,2765.64,2749.74,2693.85,2770.26,2777.95,2047,2022,15.16,0,0,0,0,
21,2731.79,2769.74,2735.9,2722.05,2732.82,2732.31,2765.13,2762.56,2783.08,2765.13,2748.72,2700.51,2770.26,2778.97,2047,2022,15.17,0,0,0,0,
22,2731.79,2773.33,2734.87,2728.21,2733.33,2732.31,2764.1,2767.69,2780.51,2765.13,2748.72,2707.69,2773.33,2780.51,2046,2023,15.18,0,0,0,0,
23,2730.77,2781.03,2734.87,2734.36,2730.26,2733.85,2765.64,2764.62,2783.08,2767.18,2750.26,2713.33,2772.31,2782.05,2046,2022,15.18,0,0,0,0,
24,2732.31,2783.08,2738.46,2733.85,2731.79,2732.82,2765.64,2763.08,2787.18,2771.79,2750.26,2721.03,2772.82,2780,2045,2024,15.19,0,0,0,0,
25,2734.36,2782.05,2741.54,2732.31,2731.79,2733.33,2766.67,2766.15,2786.67,2778.46,2750.77,2729.23,2776.92,2780,2045,2023,15.2,0,0,0,0,
26,2733.85,2783.08,2745.13,2732.31,2730.26,2739.49,2771.28,2766.15,2790.77,2782.05,2756.92,2734.87,2775.38,2780.51,2046,2023,15.21,0,0,0,0,
27,2735.9,2783.59,2749.74,2732.31,2732.82,2742.05,2771.79,2766.15,2799.49,2780.51,2763.59,2742.05,2776.92,2782.05,2046,2023,15.21,0,0,0,0,
28,2742.56,2781.03,2750.26,2733.85,2735.38,2740,2766.67,2767.18,2798.97,2778.97,2764.62,2746.67,2785.64,2787.18,2045,2022,15.22,0,0,0,0,
29,2748.72,2781.54,2748.72,2734.36,2736.41,2743.08,2765.13,2766.15,2794.87,2780,2763.59,2752.82,2783.59,2788.21,2047,2022,15.23,0,0,0,0,
30,2749.23,2786.15,2750.26,2733.33,2738.46,2749.23,2771.79,2766.67,2796.92,2781.54,2764.1,2761.03,2776.92,2786.67,2046,2021,15.24,0,0,0,0,
31,2747.18,2787.69,2749.23,2734.36,2739.49,2749.23,2778.46,2769.74,2797.44,2782.05,2764.62,2768.21,2782.05,2788.21,2047,2022,15.251,0,0,0,0,
32,2747.69,2787.18,2751.79,2737.95,2742.05,2747.69,2781.54,2774.36,2794.87,2782.56,2765.13,2776.41,2785.64,2788.72,2047,2023,15.259,0,0,0,0,
33,2747.18,2787.18,2755.9,2743.08,2747.69,2749.23,2781.54,2776.41,2796.41,2782.05,2764.62,2784.1,2782.56,2788.21,2046,2023,15.263,0,0,0,0,
34,2746.15,2787.18,2754.36,2748.21,2750.26,2749.23,2781.54,2776.41,2797.95,2782.56,2765.13,2786.67,2786.15,2793.33,2046,2023,15.271,0,0,0,0,
35,2747.69,2789.23,2758.46,2748.72,2749.23,2749.23,2781.54,2778.97,2798.46,2782.05,2767.69,2790.77,2789.23,2798.46,2046,2022,15.281,0,0,0,0,
36,2750.26,2793.85,2767.69,2746.67,2750.26,2750.26,2782.56,2781.54,2800.51,2781.03,2766.67,2799.49,2785.64,2797.44,2046,2022,15.281,0,0,0,0,
37,2750.26,2796.41,2765.13,2748.21,2750.26,2749.74,2784.62,2781.54,2802.56,2784.1,2766.67,2806.15,2787.18,2797.44,2046,2024,15.291,0,0,0,0,
38,2750.26,2796.92,2757.44,2749.23,2748.21,2751.28,2783.08,2781.03,2803.59,2788.72,2771.28,2812.31,2791.79,2796.92,2047,2023,15.301,0,0,0,0,
39,2748.72,2797.95,2761.03,2749.23,2750.77,2755.9,2781.03,2781.03,2803.59,2788.72,2772.82,2820.51,2786.67,2795.9,2047,2021,15.311,0,0,0,0,
40,2751.28,2796.41,2766.15,2750.26,2750.26,2761.54,2785.13,2782.05,2801.03,2790.26,2773.85,2828.72,2787.69,2799.49,2046,2023,15.321,0,0,0,0,
41,2756.41,2796.41,2765.13,2749.74,2749.23,2765.64,2788.72,2785.64,2803.59,2796.41,2778.46,2834.36,2800,2804.1,2047,2023,15.321,0,0,0,0,
42,2757.95,2801.54,2764.1,2751.79,2754.87,2765.13,2788.21,2787.69,2816.41,2797.95,2781.03,2835.38,2801.03,2804.62,2046,2023,15.331,0,0,0,0,
43,2761.03,2803.08,2767.18,2755.38,2758.46,2763.08,2788.21,2786.15,2822.56,2796.92,2781.03,2841.54,2793.33,2803.59,2047,2023,15.341,0,0,0,0,
44,2766.67,2802.05,2767.69,2757.44,2756.41,2764.1,2791.28,2786.15,2818.46,2797.95,2781.54,2849.74,2796.92,2802.56,2047,2023,15.351,0,0,0,0,
45,2767.18,2803.59,2766.15,2762.05,2760,2765.64,2795.38,2788.21,2817.95,2798.46,2782.05,2854.36,2804.62,2806.15,2047,2023,15.361,0,0,0,0,
46,2765.64,2806.15,2769.23,2766.67,2766.67,2764.62,2797.44,2793.85,2820,2801.03,2780.51,2863.59,2804.1,2809.23,2046,2022,15.361,0,0,0,0,
47,2765.13,2811.79,2773.85,2765.64,2766.15,2765.13,2795.9,2798.46,2818.97,2804.1,2782.05,2869.23,2802.56,2805.64,2045,2022,15.371,0,0,0,0,
48,2764.62,2816.92,2773.33,2764.1,2764.1,2767.69,2795.9,2797.44,2819.49,2803.59,2785.64,2867.18,2803.08,2806.67,2046,2022,15.381,0,0,0,0,
49,2764.62,2809.74,2772.82,2764.62,2767.18,2768.21,2800,2794.87,2820,2802.56,2787.69,2876.92,2803.08,2808.21,2047,2022,15.391,0,0,0,0,
50,2763.59,2802.05,2777.95,2764.62,2767.18,2767.69,2803.59,2796.41,2819.49,2804.1,2788.72,2885.13,2806.67,2806.15,2046,2022,15.391,0,0,0,0,
51,2764.1,2811.28,2782.56,2765.13,2764.1,2769.23,2803.08,2796.92,2819.49,2805.13,2786.67,2885.64,2805.64,2811.79,2046,2022,15.401,0,0,0,0,
52,2769.74,2820,2781.03,2765.64,2766.15,2772.31,2802.05,2795.9,2818.97,2803.08,2786.67,2894.87,2804.62,2820,2046,2020,15.411,0,0,0,0,
53,2774.87,2818.46,2780.51,2764.62,2770.77,2777.95,2802.05,2796.92,2818.97,2804.62,2792.82,2901.54,2811.79,2818.46,2046,2022,15.421,0,0,0,0,
54,2773.85,2817.44,2782.56,2769.74,2773.33,2781.03,2802.56,2801.54,2820.51,2810.77,2798.46,2905.64,2817.44,2816.41,2046,2023,15.431,0,0,0,0,
55,2774.36,2818.97,2782.56,2775.38,2772.31,2780,2804.62,2804.1,2818.97,2814.87,2797.44,2913.85,2814.36,2820,2046,2024,15.431,0,0,0,0,
56,2780,2816.92,2780.51,2772.82,2772.31,2779.49,2806.15,2802.56,2821.54,2813.33,2796.41,2917.44,2813.33,2819.49,2047,2024,15.441,0,0,0,0,
57,2782.56,2817.44,2783.08,2770.77,2776.92,2783.08,2804.62,2804.1,2831.28,2812.31,2796.92,2923.08,2817.44,2816.92,2046,2022,15.455,0,0,0,0,
58,2782.05,2821.03,2787.18,2778.46,2781.54,2782.56,2807.18,2803.59,2836.41,2813.85,2797.44,2932.82,2818.46,2820.51,2046,2023,15.463,0,0,0,0,
59,2781.54,2820.51,2785.64,2783.59,2783.08,2780,2815.9,2803.59,2833.33,2812.31,2801.03,2934.87,2817.95,2821.54,2046,2024,15.471,0,0,0,0,
60,2781.54,2820,2787.18,2780.51,2782.05,2782.56,2820,2811.28,2833.85,2812.31,2805.64,2939.49,2818.97,2821.03,2046,2023,15.479,0,0,0,0,
61,2781.54,2822.05,2797.44,2780,2780.51,2787.18,2817.44,2816.92,2837.44,2816.92,2804.62,2947.18,2818.46,2827.18,2046,2021,15.487,0,0,0,0,
62,2784.62,2820,2800.51,2782.05,2782.05,2790.26,2816.41,2812.82,2836.41,2820,2803.08,2950.26,2820,2829.23,2046,2022,15.495,0,0,0,0,
63,2787.18,2819.49,2793.85,2782.05,2786.15,2786.67,2817.95,2812.82,2835.38,2820,2807.18,2955.9,2820.51,2826.67,2046,2022,15.503,0,0,0,0,
64,2787.69,2829.74,2795.38,2781.03,2788.21,2787.18,2818.97,2818.46,2836.41,2820.51,2813.85,2963.59,2821.03,2831.28,2047,2022,15.507,0,0,0,0,
65,2787.69,2837.44,2800,2782.56,2786.15,2796.92,2818.97,2820,2835.9,2820.51,2814.87,2967.18,2820.51,2836.92,2046,2021,15.517,0,0,0,0,
66,2785.64,2833.85,2797.44,2786.15,2789.23,2801.03,2820,2818.97,2835.9,2820,2813.33,2972.82,2820.51,2835.38,2046,2023,15.517,0,0,0,0,
67,2789.23,2833.33,2796.92,2786.67,2795.9,2794.87,2819.49,2818.46,2834.87,2819.49,2812.82,2983.08,2825.13,2833.85,2046,2023,15.527,0,0,0,0,
68,2799.49,2836.41,2801.03,2789.74,2798.46,2793.85,2818.46,2817.95,2835.9,2818.46,2812.82,2988.72,2833.85,2835.38,2046,2023,15.537,0,0,0,0,
69,2800.51,2834.36,2803.59,2796.41,2796.92,2798.97,2826.15,2817.95,2836.41,2822.56,2815.9,2989.23,2836.92,2834.87,2046,2023,15.547,0,0,0,0,
70,2795.38,2832.82,2803.08,2797.95,2795.9,2796.92,2836.41,2818.46,2833.85,2832.82,2819.49,2994.87,2834.87,2835.38,2046,2021,15.557,0,0,0,0,
71,2797.44,2834.87,2804.1,2795.9,2796.41,2796.41,2833.33,2821.54,2838.46,2835.38,2817.95,3006.67,2834.36,2836.41,2047,2020,15.557,0,0,0,0,
72,2803.59,2835.9,2806.67,2797.44,2795.9,2801.03,2828.72,2819.49,2849.74,2832.31,2817.44,3007.18,2834.87,2835.38,2046,2021,15.567,0,0,0,0,
73,2803.59,2835.9,2806.67,2797.95,2795.38,2803.59,2833.33,2820,2851.79,2833.85,2822.05,3006.15,2833.85,2837.44,2046,2021,15.577,0,0,0,0,
74,2802.56,2835.9,2804.62,2797.44,2796.41,2802.05,2835.9,2830.26,2848.72,2835.9,2821.03,3018.97,2833.85,2839.49,2046,2021,15.587,0,0,0,0,
75,2802.56,2837.95,2806.67,2802.05,2794.87,2802.05,2834.36,2836.41,2851.79,2834.87,2819.49,3024.62,2834.87,2838.46,2046,2023,15.597,0,0,0,0,
76,2803.08,2838.46,2814.87,2803.59,2794.87,2806.15,2835.38,2833.33,2854.36,2834.36,2828.21,3022.05,2834.36,2840.51,2047,2023,15.597,0,0,0,0,
77,2804.62,2835.38,2819.49,2802.56,2801.54,2804.1,2834.36,2831.79,2852.82,2834.87,2835.9,3032.82,2836.41,2847.69,2045,2023,15.607,0,0,0,0,
78,2805.64,2841.54,2817.95,2804.1,2805.13,2806.67,2833.33,2834.87,2852.31,2835.9,2834.36,3041.03,2836.92,2851.28,2046,2023,15.617,0,0,0,0,
79,2803.59,2852.31,2816.41,2805.13,2806.15,2815.38,2834.87,2835.9,2852.82,2835.9,2832.31,3038.97,2837.44,2849.74,2046,2023,15.627,0,0,0,0,
80,2805.13,2850.77,2817.95,2802.05,2812.82,2815.38,2835.9,2835.9,2852.82,2836.92,2834.87,3047.69,2844.1,2850.26,2046,2023,15.637,0,0,0,0,
81,2814.87,2844.62,2818.97,2807.69,2816.41,2812.82,2835.38,2834.87,2852.82,2836.41,2835.9,3057.44,2848.21,2851.79,2046,2024,15.637,0,0,0,0,
82,2818.46,2849.74,2820,2818.97,2811.28,2817.44,2837.95,2833.85,2851.79,2835.38,2834.87,3055.9,2847.18,2850.77,2046,2022,15.647,0,0,0,0,
83,2813.85,2854.36,2819.49,2818.46,2811.79,2820.51,2835.9,2834.36,2852.82,2842.05,2834.36,3062.05,2849.23,2850.26,2046,2021,15.657,0,0,0,0,
84,2811.28,2851.79,2817.95,2809.23,2817.44,2817.44,2833.85,2834.87,2852.82,2851.28,2833.33,3072.82,2852.82,2849.74,2046,2022,15.667,0,0,0,0,
85,2813.85,2851.28,2822.56,2810.77,2817.95,2817.44,2845.13,2834.87,2850.26,2851.28,2835.9,3070.26,2850.26,2853.85,2047,2022,15.667,0,0,0,0,
86,2817.44,2853.85,2825.13,2818.97,2817.95,2818.46,2850.77,2836.92,2855.38,2849.74,2837.44,3070.77,2850.26,2853.85,2046,2024,15.677,0,0,0,0,
87,2818.97,2851.79,2824.62,2820,2818.46,2820,2841.54,2846.15,2865.64,2851.79,2835.38,3083.59,2853.33,2850.77,2045,2023,15.687,0,0,0,0,
88,2817.44,2853.33,2829.74,2817.95,2818.97,2821.03,2841.54,2852.31,2868.21,2851.28,2840.51,3088.72,2851.79,2860,2046,2024,15.697,0,0,0,0,
89,2818.46,2859.49,2834.87,2818.97,2820.51,2819.49,2852.31,2849.74,2865.13,2850.77,2850.26,3088.72,2850.77,2864.62,2046,2024,15.707,0,0,0,0,
90,2818.97,2862.05,2833.33,2819.49,2820.51,2819.49,2852.31,2848.72,2867.18,2852.82,2852.31,3097.95,2853.33,2857.95,2046,2021,15.707,0,0,0,0,
91,2819.49,2858.46,2833.85,2820,2820,2824.1,2849.23,2851.28,2868.72,2851.28,2848.72,3106.15,2853.33,2858.46,2045,2020,15.717,0,0,0,0,
92,2830.26,2859.49,2835.9,2819.49,2821.03,2832.31,2852.82,2851.79,2866.67,2851.79,2849.74,3106.15,2852.82,2867.18,2045,2022,15.727,0,0,0,0,
93,2832.31,2865.64,2835.38,2818.97,2821.54,2835.38,2853.33,2850.77,2866.67,2853.85,2851.79,3111.28,2860,2868.21,2047,2021,15.737,0,0,0,0,
94,2825.13,2867.69,2836.41,2825.64,2825.13,2832.31,2851.79,2851.28,2867.18,2851.79,2850.77,3120.51,2868.72,2866.15,2046,2021,15.747,0,0,0,0,
95,2829.23,2865.64,2837.44,2834.87,2832.82,2832.82,2850.77,2852.31,2867.18,2855.9,2850.77,3124.62,2867.69,2867.69,2047,2023,15.747,0,0,0,0,
