COUNTER,AF3,F7,F3, FC5, T7, P7, O1, O2,P8, T8, FC6, F4,F8, AF4,GYROX, GYROY, TIMESTAMP, FUNC_ID, FUNC_VALUE, MARKER, SYNC_SIGNAL,
78,3990.26,4182.56,4008.21,4627.69,3879.49,3977.44,4027.69,4010.77,4008.72,3989.23,4098.97,3996.92,3937.95,4022.56,2044,2037,8.575,0,0,0,0,
79,4001.03,4098.97,4014.36,4612.82,3876.92,3986.15,4035.38,4017.95,4009.23,3977.95,4104.62,4002.56,3861.03,4027.69,2044,2036,8.582,0,0,0,0,
80,4009.23,4031.79,4025.64,4588.21,3882.56,3985.64,4047.18,4041.03,4025.64,4013.33,4126.15,4017.95,3815.9,4043.59,2043,2035,8.59,0,0,0,0,
81,4005.13,3960.51,4027.18,4555.9,3888.21,3990.26,4055.9,4048.72,4029.23,4011.79,4132.31,4020.51,3761.03,4045.64,2042,2034,8.598,0,0,0,0,
82,4010.77,3889.23,4032.31,4533.85,3898.46,4004.1,4058.97,4040,4022.56,3992.82,4141.54,4021.54,3688.21,4050.26,2041,2033,8.606,0,0,0,0,
83,4030.26,3846.67,4039.49,4517.95,3917.44,4005.64,4064.1,4049.23,4031.79,4012.82,4160,4033.85,3638.97,4066.67,2042,2030,8.614,0,0,0,0,
84,4032.82,3813.33,4036.41,4491.28,3928.21,4000.51,4073.85,4074.36,4046.15,4035.38,4170.26,4041.03,3609.23,4071.28,2042,2025,8.622,0,0,0,0,
85,4024.62,3767.69,4036.41,4470.26,3920.51,3995.38,4083.08,4090.26,4050.26,4026.67,4168.72,4041.03,3566.67,4068.72,2044,2023,8.631,0,0,0,0,
86,4035.38,3737.95,4045.64,4461.54,3914.36,3990.77,4086.15,4092.82,4052.82,4025.13,4172.31,4050.77,3528.72,4077.44,2044,2023,8.638,0,0,0,0,
87,4047.69,3728.72,4050.77,4444.62,3918.97,3990.77,4086.67,4093.85,4052.31,4030.26,4172.82,4067.18,3513.33,4087.18,2044,2023,8.645,0,0,0,0,
88,4053.85,3716.92,4062.05,4431.79,3934.87,3993.33,4094.87,4108.21,4051.79,4018.46,4176.92,4080,3507.69,4098.97,2045,2033,8.653,0,0,0,0,
89,4069.74,3701.54,4078.46,4428.72,3940.51,3991.28,4107.18,4133.33,4062.05,4017.95,4189.23,4090.26,3501.54,4118.46,2047,2036,8.661,0,0,0,0,
90,4080.51,3681.03,4076.92,4409.23,3924.1,3990.26,4109.74,4139.49,4060,4022.56,4187.18,4096.92,3488.21,4121.54,2047,2040,8.669,0,0,0,0,
91,4075.38,3659.49,4074.36,4382.56,3908.72,3990.77,4106.67,4136.41,4052.31,4016.41,4181.03,4097.44,3472.82,4113.85,2046,2040,8.677,0,0,0,0,
92,4080,3648.72,4088.21,4377.95,3917.95,3986.67,4110.77,4154.36,4062.05,4016.92,4191.79,4100.51,3473.85,4123.59,2046,2041,8.685,0,0,0,0,
93,4094.36,3643.59,4098.97,4373.85,3927.18,3987.18,4121.03,4165.13,4070.26,4017.95,4193.33,4107.18,3484.1,4141.03,2043,2040,8.693,0,0,0,0,
94,4091.79,3629.74,4098.46,4358.97,3910.77,3988.21,4126.15,4157.95,4066.15,4021.54,4181.54,4111.79,3477.44,4141.54,2042,2040,8.701,0,0,0,0,
95,4086.67,3616.92,4101.03,4355.9,3922.56,3984.62,4123.59,4162.05,4070.77,4039.49,4194.87,4118.46,3474.87,4141.03,2039,2041,8.709,0,0,0,0,
96,4103.08,3616.92,4115.9,4356.92,3953.33,3985.64,4127.69,4168.72,4084.62,4057.95,4212.82,4129.23,3501.54,4155.9,2037,2042,8.716,0,0,0,0,
97,4121.03,3618.97,4132.82,4344.1,3955.9,3994.87,4140.51,4168.21,4086.67,4057.44,4207.69,4137.95,3522.05,4168.21,2036,2045,8.724,0,0,0,0,
98,4125.13,3618.97,4142.56,4332.82,3964.62,4004.62,4150.77,4174.87,4081.54,4042.05,4206.15,4144.1,3526.15,4168.72,2035,2045,8.732,0,0,0,0,
99,4124.1,3619.49,4140.51,4322.05,3977.95,4008.72,4160,4184.1,4082.05,4033.33,4211.79,4143.08,3533.85,4171.28,2036,2063,8.74,0,0,0,0,
100,4120.51,3615.9,4134.36,4303.59,3962.05,4010.77,4166.15,4182.05,4084.1,4038.46,4203.59,4136.41,3531.28,4174.87,2036,2049,8.748,0,0,0,0,
101,4125.64,3613.33,4142.05,4293.85,3965.13,4010.77,4168.21,4186.15,4087.18,4052.82,4201.54,4145.13,3526.67,4180.51,2036,2049,8.756,0,0,0,0,
102,4138.46,3620,4154.87,4294.87,3986.15,4011.79,4178.97,4206.67,4097.44,4070.26,4214.36,4157.95,3549.74,4191.28,2039,2049,8.77,0,0,0,0,
103,4142.05,3627.69,4157.44,4288.72,3993.33,4020.51,4192.82,4221.54,4108.72,4076.41,4221.03,4158.97,3570.77,4199.49,2041,2047,8.772,0,0,0,0,
104,4141.54,3634.87,4157.44,4274.36,4001.03,4031.79,4197.95,4223.08,4107.69,4077.95,4222.56,4159.49,3575.38,4206.15,2043,2049,8.779,0,0,0,0,
105,4155.38,3646.67,4164.1,4263.59,4002.56,4036.92,4205.13,4233.85,4111.28,4094.87,4233.85,4167.69,3602.05,4224.1,2044,2050,8.787,0,0,0,0,
106,4170.77,3661.54,4177.44,4262.56,4004.62,4039.49,4221.03,4256.41,4130.26,4117.95,4250.26,4177.44,3633.33,4242.56,2046,2050,8.795,0,0,0,0,
107,4171.28,3669.74,4181.54,4260,4014.87,4043.59,4229.74,4259.49,4138.97,4116.41,4249.23,4180.51,3628.72,4242.56,2048,2050,8.803,0,0,0,0,
108,4166.15,3669.74,4174.36,4244.1,4008.72,4044.1,4229.74,4248.72,4125.13,4104.62,4238.46,4177.44,3620.51,4233.85,2048,2046,8.812,0,0,0,0,
109,4167.69,3671.79,4176.41,4230.77,4012.31,4049.23,4238.46,4254.87,4120.51,4120.51,4243.08,4184.1,3635.38,4248.21,2050,2046,8.819,0,0,0,0,
110,4173.85,3685.13,4190.26,4231.28,4045.64,4057.44,4256.41,4269.74,4135.9,4144.62,4258.46,4204.1,3652.31,4276.41,2050,2043,8.827,0,0,0,0,
111,4168.21,3693.85,4188.72,4223.59,4041.54,4060.51,4267.69,4274.36,4139.49,4130.77,4261.54,4204.62,3652.31,4279.49,2051,2037,8.835,0,0,0,0,
112,4164.62,3703.59,4182.05,4206.67,4019.49,4069.74,4274.36,4284.62,4135.9,4111.28,4266.15,4198.46,3656.41,4275.9,2051,2039,8.842,0,0,0,0,
113,4176.41,3725.13,4193.85,4201.03,4029.74,4080.51,4279.49,4298.46,4145.13,4141.54,4283.08,4215.9,3673.85,4290.77,2053,2038,8.85,0,0,0,0,
114,4186.67,3730.77,4201.54,4202.05,4054.36,4084.62,4284.62,4301.54,4154.36,4174.36,4295.38,4234.36,3687.18,4307.18,2054,2037,8.858,0,0,0,0,
115,4193.85,3729.23,4209.74,4197.44,4095.38,4096.41,4302.05,4313.85,4158.46,4173.33,4303.08,4241.03,3700.51,4324.1,2056,2039,8.866,0,0,0,0,
116,4215.38,3753.85,4227.69,4191.28,4119.49,4104.1,4323.08,4342.56,4170.77,4176.92,4314.87,4259.49,3721.03,4345.64,2056,2040,8.875,0,0,0,0,
117,4227.69,3770.77,4230.26,4178.97,4102.56,4100,4325.64,4348.21,4174.36,4185.13,4317.44,4270.26,3731.79,4349.23,2059,2038,8.882,0,0,0,0,
118,4218.97,3756.41,4222.56,4161.03,4081.54,4102.05,4329.74,4342.56,4166.67,4182.05,4311.28,4262.56,3730.77,4343.59,2059,2036,8.893,0,0,0,0,
119,4222.05,3752.82,4233.33,4148.72,4083.08,4112.31,4350.77,4366.15,4176.41,4182.56,4318.97,4268.21,3741.54,4352.31,2059,2037,8.898,0,0,0,0,
120,4236.41,3769.74,4247.69,4144.1,4101.03,4116.92,4362.56,4388.21,4195.9,4207.69,4333.33,4282.05,3757.95,4365.64,2058,2037,8.906,0,0,0,0,
121,4247.69,3777.95,4254.87,4133.33,4125.64,4125.64,4368.21,4388.72,4201.54,4233.85,4342.05,4289.23,3772.82,4378.46,2057,2035,8.914,0,0,0,0,
122,4260.51,3788.21,4266.15,4123.08,4151.79,4139.49,4384.62,4397.44,4202.56,4230.26,4354.36,4301.54,3795.38,4397.44,2055,2036,8.921,0,0,0,0,
123,4267.18,3799.49,4269.74,4121.03,4160,4130.77,4401.03,4412.31,4204.62,4221.54,4352.31,4307.18,3802.56,4403.08,2054,2036,8.929,0,0,0,0,
124,4260,3795.9,4261.54,4117.95,4142.56,4102.56,4405.13,4405.64,4197.95,4230.26,4325.64,4301.54,3792.31,4393.33,2054,2035,8.937,0,0,0,0,
125,4256.41,3795.9,4261.03,4113.85,4134.87,4095.38,4408.21,4397.44,4193.33,4226.67,4308.21,4299.49,3801.03,4399.49,2054,2035,8.945,0,0,0,0,
126,4269.23,3813.33,4272.31,4116.41,4171.28,4116.92,4418.97,4412.82,4204.1,4220,4313.85,4297.95,3824.1,4414.87,2055,2034,8.953,0,0,0,0,
127,4282.56,3834.36,4286.67,4120,4193.33,4130.26,4434.87,4435.38,4215.9,4250.26,4326.67,4305.64,3833.85,4424.1,2054,2035,8.962,0,0,0,0,
128,4291.28,3848.72,4300,4123.08,4174.36,4124.62,4441.54,4445.64,4220.51,4278.97,4338.46,4323.08,3842.56,4442.05,2053,2034,8.969,0,0,0,0,
0,4293.85,3861.03,4306.67,4130.77,4184.62,4125.13,4445.64,4445.64,4225.64,4272.82,4344.62,4327.18,3860.51,4462.05,2052,2035,8.976,0,0,0,0,
1,4299.49,3874.87,4313.85,4138.46,4215.38,4132.82,4461.03,4456.92,4234.36,4267.69,4351.79,4331.79,3869.74,4463.08,2052,2035,8.984,0,0,0,0,
2,4312.31,3890.26,4326.15,4144.62,4216.41,4140.51,4479.49,4479.49,4248.21,4285.64,4364.1,4351.79,3878.97,4467.18,2050,2035,8.992,0,0,0,0,
3,4314.87,3902.05,4328.72,4152.82,4215.38,4147.69,4485.64,4488.72,4252.82,4296.92,4363.59,4356.92,3890.26,4484.62,2050,2036,9.001,0,0,0,0,
4,4304.62,3909.23,4326.67,4156.92,4238.46,4154.36,4491.79,4485.13,4247.69,4289.23,4354.36,4348.72,3891.28,4492.31,2051,2034,9.008,0,0,0,0,
5,4298.46,3910.26,4324.1,4147.18,4233.85,4153.33,4500,4473.85,4241.54,4274.87,4344.62,4341.54,3884.1,4475.38,2048,2032,9.016,0,0,0,0,
6,4305.64,3912.82,4320.51,4138.97,4223.59,4154.87,4504.62,4468.72,4237.44,4259.49,4336.92,4337.95,3886.15,4469.74,2049,2031,9.024,0,0,0,0,
7,4318.46,3931.79,4329.74,4146.15,4262.05,4165.64,4513.33,4487.69,4246.15,4271.79,4349.74,4352.82,3903.59,4494.87,2049,2031,9.032,0,0,0,0,
8,4328.72,3955.9,4345.13,4155.9,4300.51,4167.69,4518.97,4508.72,4255.38,4310.77,4366.67,4371.79,3924.1,4509.74,2049,2030,9.04,0,0,0,0,
9,4335.38,3961.54,4348.72,4160,4280.51,4155.9,4520,4505.13,4247.18,4325.64,4359.49,4372.31,3934.36,4501.03,2050,2031,9.048,0,0,0,0,
10,4337.44,3959.49,4349.23,4165.64,4246.67,4152.31,4527.69,4501.03,4236.41,4306.67,4354.87,4373.33,3938.97,4506.15,2051,2033,9.055,0,0,0,0,
11,4335.9,3968.72,4358.46,4169.23,4265.64,4163.59,4542.56,4510.26,4245.64,4300,4371.79,4385.13,3947.69,4518.97,2051,2034,9.064,0,0,0,0,
12,4329.74,3972.82,4362.56,4165.13,4290.77,4168.72,4549.74,4512.31,4255.38,4311.79,4376.41,4386.67,3952.31,4515.9,2051,2035,9.071,0,0,0,0,
13,4330.26,3975.38,4369.23,4167.69,4291.79,4169.74,4550.26,4506.67,4249.74,4322.56,4376.41,4389.74,3954.87,4529.74,2050,2039,9.079,0,0,0,0,
14,4335.9,3985.64,4380,4173.33,4298.97,4176.92,4563.08,4518.97,4253.85,4340.51,4385.64,4400,3967.69,4551.79,2050,2038,9.087,0,0,0,0,
15,4329.74,3985.64,4378.97,4168.21,4294.36,4179.49,4574.36,4532.31,4265.64,4354.36,4386.15,4400.51,3975.9,4550.26,2051,2033,9.095,0,0,0,0,
16,4320,3971.79,4374.36,4165.13,4283.59,4174.87,4572.31,4524.1,4265.13,4351.28,4383.08,4398.97,3976.41,4548.72,2052,2031,9.103,0,0,0,0,
17,4322.56,3975.38,4382.05,4171.28,4303.08,4172.82,4572.31,4521.03,4264.1,4346.67,4391.79,4408.21,3987.69,4562.56,2053,2031,9.11,0,0,0,0,
18,4317.44,3984.1,4385.64,4172.31,4312.82,4167.69,4573.85,4527.69,4269.74,4341.03,4391.79,4408.72,3993.33,4567.18,2052,2030,9.118,0,0,0,0,
19,4298.97,3974.87,4373.33,4164.1,4276.92,4157.95,4565.64,4521.54,4270.77,4334.36,4379.49,4396.92,3978.97,4556.92,2052,2030,9.126,0,0,0,0,
20,4305.64,3984.1,4377.95,4167.18,4279.49,4163.08,4569.23,4521.03,4284.62,4343.08,4385.64,4402.56,3984.62,4559.49,2052,2030,9.134,0,0,0,0,
21,4323.08,4003.59,4394.87,4174.36,4317.95,4177.95,4588.21,4537.95,4306.67,4368.21,4399.49,4415.38,4008.72,4569.23,2052,2034,9.142,0,0,0,0,
22,4313.33,3993.33,4386.67,4170.77,4293.33,4173.85,4583.59,4533.33,4302.05,4372.31,4391.28,4403.08,4007.69,4564.1,2054,2033,9.15,0,0,0,0,
23,4302.05,3981.03,4373.85,4166.67,4268.21,4165.13,4572.82,4521.54,4292.31,4355.38,4372.82,4392.31,3998.46,4554.36,2053,2033,9.158,0,0,0,0,
24,4307.18,3986.15,4379.49,4167.18,4287.69,4169.23,4584.1,4531.79,4300.51,4344.62,4368.72,4397.95,4000.51,4551.79,2053,2033,9.166,0,0,0,0,
25,4309.74,3988.21,4382.56,4164.62,4286.15,4167.69,4587.69,4533.85,4301.54,4343.08,4374.36,4400,4002.05,4552.82,2053,2033,9.173,0,0,0,0,
26,4312.82,3996.92,4381.54,4163.08,4286.15,4163.59,4581.54,4528.21,4297.44,4359.49,4377.44,4406.67,4010.26,4555.9,2052,2030,9.182,0,0,0,0,
27,4318.97,4018.97,4387.18,4169.74,4314.87,4171.79,4588.21,4533.85,4295.38,4379.49,4381.03,4418.97,4017.44,4565.13,2050,2029,9.189,0,0,0,0,
28,4315.38,4023.59,4381.54,4165.64,4314.87,4169.23,4584.1,4523.59,4274.36,4377.95,4380,4410.26,4004.62,4561.54,2048,2028,9.197,0,0,0,0,
29,4312.31,4016.92,4366.15,4144.1,4293.33,4151.79,4564.62,4500,4247.69,4362.05,4366.15,4395.38,3994.36,4542.56,2047,2029,9.205,0,0,0,0,
30,4321.03,4029.74,4368.21,4131.79,4306.67,4146.15,4565.64,4506.15,4244.62,4355.9,4368.72,4402.56,4010.77,4544.1,2046,2031,9.213,0,0,0,0,
31,4327.18,4051.28,4378.97,4141.54,4323.59,4156.41,4582.05,4526.15,4256.92,4360,4387.18,4413.85,4024.62,4560,2046,2031,9.222,0,0,0,0,
32,4327.18,4060.51,4378.97,4150.77,4334.36,4168.72,4587.18,4531.28,4266.67,4360.51,4387.69,4412.82,4025.13,4562.56,2045,2032,9.229,0,0,0,0,
33,4334.87,4070.26,4376.92,4149.23,4362.56,4180.51,4586.15,4534.87,4270.77,4364.1,4381.54,4415.9,4030.26,4566.15,2045,2032,9.237,0,0,0,0,
34,4349.23,4088.72,4381.54,4154.87,4375.38,4180.51,4590.26,4544.62,4279.49,4378.46,4400.51,4431.28,4047.18,4586.15,2044,2030,9.244,0,0,0,0,
35,4356.92,4100,4385.13,4163.08,4352.82,4170.77,4592.82,4547.69,4287.69,4384.1,4411.28,4433.33,4055.38,4587.18,2044,2027,9.256,0,0,0,0,
36,4363.59,4108.72,4381.54,4162.56,4348.21,4168.21,4593.33,4551.28,4289.74,4389.74,4400,4426.67,4054.36,4576.92,2043,2024,9.26,0,0,0,0,
37,4371.28,4114.36,4372.82,4164.62,4372.31,4163.08,4591.79,4557.95,4286.67,4396.92,4398.46,4431.28,4060.51,4583.59,2044,2021,9.268,0,0,0,0,
38,4376.92,4104.62,4368.21,4172.82,4368.72,4151.28,4588.72,4556.92,4283.08,4382.05,4413.33,4443.59,4070.26,4592.31,2045,2020,9.277,0,0,0,0,
39,4392.82,4107.69,4383.59,4180.51,4366.67,4157.95,4596.92,4565.13,4293.33,4392.82,4428.72,4462.56,4089.74,4611.28,2045,2022,9.284,0,0,0,0,
40,4417.44,4147.18,4403.08,4191.79,4421.03,4182.56,4618.46,4589.23,4318.97,4447.18,4444.62,4489.74,4118.46,4642.56,2044,2025,9.292,0,0,0,0,
41,4432.82,4177.44,4400.51,4203.59,4458.46,4195.9,4633.85,4601.03,4330.26,4463.59,4454.87,4502.05,4132.31,4654.87,2045,2027,9.3,0,0,0,0,
42,4440,4182.05,4394.87,4209.74,4441.03,4196.92,4633.33,4598.46,4326.15,4446.15,4460.51,4503.59,4134.36,4653.85,2046,2027,9.311,0,0,0,0,
43,4444.62,4192.31,4399.49,4217.44,4443.59,4198.46,4630.26,4605.64,4331.28,4457.44,4468.21,4512.82,4143.59,4659.49,2045,2028,9.315,0,0,0,0,
44,4447.69,4208.72,4398.46,4220,4464.1,4204.1,4634.36,4623.08,4338.97,4467.18,4475.38,4520.51,4149.23,4661.54,2045,2030,9.323,0,0,0,0,
45,4446.15,4209.23,4388.72,4215.9,4456.92,4207.69,4635.9,4616.92,4331.28,4451.28,4473.33,4512.82,4142.05,4658.46,2047,2030,9.331,0,0,0,0,
46,4442.56,4196.92,4383.59,4214.36,4458.46,4198.97,4624.62,4592.82,4324.1,4455.38,4464.62,4502.05,4140.51,4656.92,2047,2028,9.339,0,0,0,0,
47,4445.64,4203.59,4387.69,4217.44,4481.03,4192.31,4614.36,4586.15,4330.77,4469.23,4457.44,4504.62,4147.69,4651.79,2048,2026,9.347,0,0,0,0,
48,4455.9,4236.92,4393.33,4219.49,4497.44,4201.03,4622.56,4598.46,4340.51,4476.92,4464.62,4514.36,4156.92,4655.38,2049,2020,9.355,0,0,0,0,
49,4459.49,4256.41,4401.03,4218.97,4480,4206.15,4627.69,4597.44,4343.08,4482.56,4477.95,4514.87,4170.26,4669.74,2050,2020,9.363,0,0,0,0,
50,4450.26,4246.15,4401.03,4220,4453.33,4200,4615.38,4584.1,4337.95,4455.38,4462.56,4507.18,4169.23,4667.18,2052,2025,9.371,0,0,0,0,
51,4443.08,4242.05,4375.9,4221.03,4477.95,4208.21,4606.15,4572.82,4331.28,4415.38,4423.08,4504.1,4158.46,4652.31,2053,2025,9.378,0,0,0,0,
52,4449.74,4257.44,4340.51,4218.46,4518.97,4222.05,4606.15,4568.21,4328.21,4423.59,4401.54,4503.08,4171.28,4656.41,2053,2030,9.386,0,0,0,0,
53,4459.49,4265.13,4322.05,4215.38,4504.1,4217.95,4605.64,4575.38,4330.77,4443.59,4402.56,4502.05,4195.9,4666.67,2052,2036,9.394,0,0,0,0,
54,4457.95,4261.54,4318.46,4216.41,4468.72,4208.72,4600.51,4574.36,4332.82,4422.05,4394.87,4500.51,4194.36,4658.97,2052,2038,9.402,0,0,0,0,
55,4456.41,4263.08,4316.92,4213.33,4477.44,4214.87,4597.95,4560,4334.87,4407.69,4382.56,4501.03,4184.1,4652.31,2049,2042,9.41,0,0,0,0,
56,4463.08,4265.13,4319.49,4204.62,4481.03,4214.87,4601.54,4552.31,4341.54,4414.36,4382.56,4508.21,4188.21,4654.87,2048,2042,9.421,0,0,0,0,
57,4465.13,4257.95,4322.56,4200.51,4472.31,4206.67,4593.33,4546.67,4341.03,4417.44,4377.95,4510.26,4191.28,4649.74,2047,2041,9.426,0,0,0,0,
58,4457.95,4247.69,4318.46,4200.51,4485.64,4205.13,4573.33,4531.28,4333.33,4427.69,4360.51,4500,4187.18,4645.64,2045,2040,9.434,0,0,0,0,
59,4456.41,4242.56,4314.87,4199.49,4500,4206.15,4567.69,4522.05,4334.87,4439.49,4356.92,4494.87,4195.38,4647.18,2043,2040,9.441,0,0,0,0,
60,4466.15,4243.08,4318.97,4198.46,4501.03,4209.74,4575.9,4518.46,4341.03,4430.26,4377.95,4497.95,4210.26,4641.54,2041,2039,9.449,0,0,0,0,
61,4471.79,4246.67,4325.64,4201.03,4492.82,4207.69,4569.74,4515.38,4337.44,4407.18,4392.31,4495.9,4217.44,4632.31,2041,2038,9.457,0,0,0,0,
62,4462.56,4247.18,4326.67,4199.49,4486.67,4202.56,4557.44,4512.82,4333.33,4397.95,4385.64,4487.18,4212.82,4627.18,2040,2036,9.465,0,0,0,0,
63,4456.92,4242.05,4324.62,4189.23,4492.82,4207.18,4562.05,4504.62,4335.9,4402.05,4375.38,4484.62,4208.72,4626.67,2040,2037,9.473,0,0,0,0,
64,4460,4246.15,4324.62,4184.62,4487.69,4209.74,4563.08,4500.51,4340.51,4402.05,4367.18,4485.13,4209.23,4622.56,2040,2035,9.481,0,0,0,0,
65,4458.97,4252.82,4325.13,4189.23,4468.72,4199.49,4553.33,4500.51,4336.92,4401.03,4362.56,4478.97,4215.38,4613.33,2040,2035,9.489,0,0,0,0,
66,4465.64,4253.85,4328.21,4187.69,4487.69,4201.54,4551.79,4495.38,4328.72,4399.49,4362.05,4473.33,4229.23,4610.26,2041,2034,9.497,0,0,0,0,
67,4476.41,4263.08,4328.21,4183.59,4513.85,4213.85,4553.33,4484.1,4327.18,4386.15,4354.36,4470.77,4226.67,4614.36,2041,2036,9.504,0,0,0,0,
68,4467.69,4269.74,4320,4185.13,4476.92,4203.08,4544.1,4472.31,4329.74,4379.49,4339.49,4457.95,4211.79,4609.23,2041,2034,9.512,0,0,0,0,
69,4454.87,4262.56,4314.87,4181.03,4463.59,4199.49,4540,4463.59,4329.74,4397.95,4328.72,4438.46,4209.74,4596.41,2042,2032,9.52,0,0,0,0,
70,4460,4263.08,4316.41,4170.77,4495.38,4214.87,4542.56,4454.36,4328.21,4391.79,4324.1,4431.79,4209.74,4590.26,2044,2027,9.528,0,0,0,0,
71,4459.49,4266.67,4321.03,4168.72,4485.13,4211.28,4531.79,4441.03,4323.59,4358.97,4326.15,4435.9,4198.97,4583.59,2045,2024,9.536,0,0,0,0,
72,4444.1,4255.9,4321.54,4169.74,4467.18,4198.46,4522.56,4435.38,4319.49,4360.51,4330.77,4435.38,4198.97,4574.36,2046,2022,9.544,0,0,0,0,
73,4443.59,4258.46,4322.05,4170.77,4480,4206.67,4525.64,4441.54,4322.05,4381.03,4328.21,4430.26,4216.92,4574.36,2046,2022,9.552,0,0,0,0,
74,4460,4276.92,4329.23,4171.79,4485.64,4220,4523.08,4441.03,4325.64,4385.64,4328.72,4432.31,4223.08,4580,2045,2025,9.56,0,0,0,0,
75,4460.51,4273.85,4331.28,4171.28,4479.49,4213.33,4503.08,4427.69,4322.05,4382.05,4338.46,4434.36,4216.41,4568.21,2048,2029,9.567,0,0,0,0,
76,4448.72,4261.54,4326.15,4167.69,4479.49,4211.28,4490.26,4421.03,4321.54,4370.26,4335.38,4434.87,4215.38,4556.41,2047,2030,9.575,0,0,0,0,
77,4445.13,4258.97,4320.51,4161.03,4472.82,4212.82,4489.23,4423.59,4324.1,4363.59,4298.46,4434.87,4211.28,4563.59,2047,2033,9.583,0,0,0,0,
78,4446.67,4264.1,4316.41,4155.9,4465.64,4198.97,4481.03,4414.36,4315.9,4376.92,4256.92,4424.1,4195.9,4561.54,2047,2035,9.591,0,0,0,0,
79,4442.56,4263.08,4310.77,4152.31,4476.92,4190.77,4472.31,4404.62,4306.67,4372.82,4251.79,4409.74,4191.79,4539.49,2046,2036,9.599,0,0,0,0,
80,4439.49,4256.41,4302.05,4146.67,4486.67,4199.49,4472.31,4415.9,4309.23,4353.85,4268.21,4411.79,4202.56,4529.23,2045,2036,9.607,0,0,0,0,
81,4442.05,4255.9,4297.44,4139.49,4483.08,4206.15,4475.9,4430.26,4316.92,4357.44,4270.26,4417.95,4206.15,4538.46,2043,2039,9.615,0,0,0,0,
82,4442.56,4260.51,4293.85,4137.44,4474.87,4206.15,4476.92,4424.62,4314.87,4357.44,4258.97,4410.26,4203.08,4535.38,2043,2039,9.623,0,0,0,0,
83,4437.44,4257.95,4286.15,4133.33,4474.87,4206.15,4475.9,4417.95,4308.21,4340.51,4255.9,4402.56,4208.21,4517.44,2041,2039,9.631,0,0,0,0,
84,4438.97,4256.41,4282.56,4129.74,4484.62,4207.69,4474.87,4423.59,4315.38,4353.33,4268.21,4407.18,4216.92,4515.9,2042,2035,9.638,0,0,0,0,
85,4447.18,4267.18,4291.79,4133.85,4496.92,4211.79,4477.44,4429.74,4328.72,4377.44,4281.54,4411.79,4218.46,4530.26,2042,2034,9.647,0,0,0,0,
86,4446.15,4269.74,4294.36,4132.82,4505.13,4216.92,4474.36,4426.67,4328.21,4374.87,4281.03,4404.1,4217.44,4529.23,2041,2033,9.654,0,0,0,0,
87,4438.97,4257.44,4283.08,4121.03,4502.05,4213.33,4459.49,4406.67,4315.38,4363.08,4271.79,4389.74,4221.54,4514.87,2042,2031,9.662,0,0,0,0,
88,4433.85,4246.67,4271.28,4104.62,4486.15,4204.1,4444.1,4384.1,4306.15,4355.38,4262.56,4379.49,4224.1,4503.59,2042,2034,9.67,0,0,0,0,
89,4430.77,4245.64,4265.64,4090.26,4465.64,4201.03,4435.38,4375.9,4306.15,4341.54,4256.41,4373.85,4221.54,4491.79,2041,2035,9.678,0,0,0,0,
90,4430.26,4249.74,4263.59,4083.59,4461.54,4204.62,4430.77,4369.74,4309.23,4322.56,4251.28,4373.85,4218.46,4483.08,2041,2034,9.686,0,0,0,0,
91,4420.51,4241.03,4254.36,4074.87,4465.64,4199.49,4420.51,4353.33,4308.72,4314.87,4243.59,4371.28,4210.77,4475.9,2041,2034,9.694,0,0,0,0,
92,4401.03,4218.46,4234.87,4055.38,4451.28,4187.18,4405.64,4333.33,4295.9,4307.18,4226.15,4355.38,4192.31,4457.44,2040,2034,9.702,0,0,0,0,
93,4400,4214.87,4230.77,4048.72,4455.38,4196.41,4401.54,4329.74,4292.31,4296.41,4221.03,4348.72,4187.18,4445.64,2042,2034,9.71,0,0,0,0,
94,4409.23,4227.18,4231.79,4052.31,4478.97,4212.31,4400.51,4332.31,4302.05,4306.15,4225.13,4347.69,4200,4447.69,2043,2034,9.717,0,0,0,0,
95,4402.56,4226.67,4218.46,4041.03,4467.69,4206.67,4386.15,4332.31,4303.59,4301.54,4222.05,4335.38,4207.18,4439.49,2043,2032,9.725,0,0,0,0,
96,4401.03,4223.59,4213.33,4033.33,4445.13,4196.92,4374.87,4336.92,4303.08,4284.1,4219.49,4333.85,4198.97,4430.77,2045,2033,9.733,0,0,0,0,
97,4406.67,4223.08,4212.82,4036.41,4456.41,4202.56,4368.21,4329.23,4305.13,4293.33,4219.49,4337.95,4201.03,4435.38,2046,2034,9.742,0,0,0,0,
98,4396.41,4214.36,4194.36,4027.18,4453.85,4205.13,4350.26,4298.97,4300.51,4296.41,4206.67,4318.97,4204.62,4428.21,2049,2033,9.749,0,0,0,0,
99,4381.54,4207.69,4177.44,4013.33,4427.18,4194.36,4332.82,4280,4290.26,4273.33,4187.18,4300.51,4190.26,4407.18,2048,2033,9.757,0,0,0,0,
100,4384.1,4210.77,4181.54,4012.82,4426.15,4189.74,4330.26,4285.13,4282.56,4268.21,4182.56,4304.1,4183.08,4399.49,2047,2033,9.764,0,0,0,0,
101,4393.85,4215.9,4186.67,4015.9,4441.03,4198.97,4332.31,4288.21,4282.05,4281.03,4186.67,4309.23,4197.44,4407.69,2046,2033,9.772,0,0,0,0,
102,4396.41,4216.92,4184.62,4009.74,4438.46,4205.64,4330.26,4284.62,4283.08,4280,4193.33,4307.69,4206.15,4409.74,2047,2034,9.781,0,0,0,0,
103,4385.64,4204.1,4183.08,3998.97,4422.05,4200,4323.08,4282.05,4281.03,4273.33,4193.33,4310.77,4197.44,4395.9,2047,2032,9.788,0,0,0,0,
104,4375.38,4187.69,4184.1,3993.33,4416.92,4197.95,4313.85,4279.49,4282.05,4271.28,4182.05,4312.31,4189.74,4383.59,2046,2032,9.797,0,0,0,0,
105,4379.49,4196.92,4184.1,3992.31,4424.1,4204.1,4308.72,4282.56,4283.59,4267.69,4176.92,4311.79,4191.79,4385.64,2048,2033,9.804,0,0,0,0,
106,4389.23,4218.46,4186.67,3988.21,4437.95,4206.67,4310.77,4289.74,4286.15,4270.77,4181.54,4315.9,4207.69,4397.44,2048,2034,9.812,0,0,0,0,
107,4392.31,4224.62,4197.44,3987.69,4445.13,4208.72,4312.31,4285.13,4285.64,4277.44,4185.64,4314.87,4216.41,4400.51,2047,2035,9.82,0,0,0,0,
108,4391.79,4221.54,4204.1,3992.31,4442.05,4210.77,4305.64,4268.21,4276.41,4284.62,4186.67,4309.74,4208.72,4392.31,2047,2037,9.827,0,0,0,0,
109,4392.31,4223.08,4201.03,3988.72,4437.95,4213.33,4297.44,4259.49,4269.74,4286.15,4189.23,4308.21,4209.74,4385.64,2046,2038,9.835,0,0,0,0,
110,4385.13,4219.49,4199.49,3978.46,4424.62,4214.87,4292.82,4257.44,4272.31,4275.38,4184.1,4305.64,4215.38,4380.51,2045,2038,9.843,0,0,0,0,
111,4372.82,4206.67,4198.46,3973.85,4411.79,4213.33,4287.69,4246.67,4265.13,4262.05,4172.82,4291.79,4206.15,4367.18,2045,2037,9.855,0,0,0,0,
112,4373.85,4202.56,4197.95,3975.38,4422.56,4217.95,4286.67,4243.59,4259.49,4264.1,4173.85,4287.69,4203.59,4365.64,2045,2036,9.859,0,0,0,0,
113,4376.92,4203.59,4203.08,3973.85,4443.08,4223.08,4286.67,4251.28,4267.18,4269.74,4178.46,4289.23,4214.36,4373.33,2047,2033,9.867,0,0,0,0,
114,4359.49,4200.51,4196.92,3961.54,4428.72,4213.33,4276.41,4240,4264.1,4255.9,4171.79,4253.85,4210.26,4362.05,2046,2033,9.878,0,0,0,0,
115,4343.08,4196.92,4184.62,3955.9,4402.05,4203.59,4262.56,4223.59,4253.85,4242.05,4160.51,4206.67,4194.36,4343.08,2045,2036,9.883,0,0,0,0,
116,4353.85,4197.44,4191.28,3956.41,4404.62,4212.31,4260.51,4231.28,4259.49,4252.31,4166.15,4198.97,4200.51,4346.67,2045,2038,9.891,0,0,0,0,
117,4362.56,4195.9,4202.05,3948.21,4417.44,4218.97,4265.13,4237.95,4265.64,4268.21,4183.59,4211.28,4217.44,4360,2044,2037,9.899,0,0,0,0,
118,4355.9,4191.79,4196.41,3940.51,4413.85,4217.44,4263.08,4233.33,4264.62,4263.59,4185.64,4216.92,4207.69,4358.46,2045,2041,9.908,0,0,0,0,
119,4349.23,4186.15,4191.28,3937.95,4398.97,4216.92,4253.33,4231.28,4262.05,4243.59,4167.69,4216.92,4185.64,4344.1,2045,2041,9.914,0,0,0,0,
120,4349.23,4180.51,4196.92,3931.79,4401.54,4216.92,4252.31,4231.79,4262.05,4238.97,4157.44,4213.85,4192.31,4338.97,2044,2040,9.922,0,0,0,0,
121,4345.64,4180,4197.44,3926.67,4416.92,4219.49,4255.9,4230.26,4263.08,4241.54,4159.49,4211.79,4202.05,4336.92,2044,2042,9.931,0,0,0,0,
122,4338.97,4177.95,4194.87,3927.18,4413.33,4221.54,4250.26,4226.67,4260,4227.18,4161.03,4217.95,4192.82,4323.08,2044,2040,9.938,0,0,0,0,
123,4340.51,4180,4203.08,3927.69,4390.26,4220.51,4246.15,4221.03,4262.56,4229.23,4168.72,4226.67,4191.79,4323.08,2044,2039,9.946,0,0,0,0,
124,4344.1,4182.05,4208.21,3927.69,4391.79,4227.18,4249.23,4217.44,4264.62,4253.33,4173.85,4228.72,4200,4336.92,2043,2039,9.96,0,0,0,0,
125,4333.85,4175.38,4196.92,3921.03,4411.79,4236.41,4245.13,4217.95,4260.51,4242.05,4164.1,4223.59,4195.38,4326.67,2042,2039,9.963,0,0,0,0,
126,4319.49,4166.67,4181.54,3913.33,4412.82,4229.23,4230.77,4208.72,4254.87,4216.92,4156.41,4218.46,4188.21,4304.1,2042,2039,9.969,0,0,0,0,
127,4321.03,4169.74,4178.46,3916.92,4408.72,4221.54,4224.1,4200,4252.82,4226.15,4159.49,4225.64,4192.31,4303.59,2042,2039,9.978,0,0,0,0,
128,4322.05,4170.26,4170.26,3919.49,4400.51,4220.51,4223.59,4196.92,4249.23,4227.18,4156.92,4227.18,4192.82,4305.13,2039,2043,9.985,0,0,0,0,
0,4304.1,4155.9,4140.51,3908.72,4381.03,4217.95,4213.33,4184.1,4242.56,4203.08,4147.18,4210.77,4181.03,4288.72,2041,2042,9.993,0,0,0,0,
1,4292.82,4147.69,4111.79,3897.95,4366.67,4214.87,4202.05,4170.77,4238.97,4194.87,4141.03,4202.56,4173.85,4276.41,2041,2040,10.001,0,0,0,0,
2,4293.85,4149.74,4102.56,3895.9,4366.15,4210.26,4202.05,4168.21,4236.92,4203.59,4136.92,4208.21,4174.87,4276.92,2040,2040,10.009,0,0,0,0,
3,4284.1,4141.03,4095.9,3897.44,4368.21,4202.56,4196.41,4164.1,4233.85,4194.36,4124.1,4203.08,4167.18,4267.69,2041,2039,10.017,0,0,0,0,
4,4273.33,4131.79,4086.67,3894.36,4369.23,4202.56,4186.67,4162.56,4232.82,4185.13,4118.46,4196.41,4165.64,4254.36,2042,2038,10.025,0,0,0,0,
5,4275.9,4135.9,4084.62,3884.62,4364.62,4204.62,4188.21,4171.28,4234.36,4189.74,4127.18,4205.64,4173.33,4252.31,2042,2037,10.032,0,0,0,0,
6,4274.87,4132.31,4083.08,3879.49,4357.44,4199.49,4188.21,4169.23,4232.82,4188.72,4127.69,4210.26,4169.23,4254.36,2042,2037,10.04,0,0,0,0,
7,4261.54,4118.97,4075.9,3881.03,4360.51,4199.49,4176.92,4155.38,4231.28,4168.72,4113.33,4201.54,4156.41,4247.69,2043,2035,10.048,0,0,0,0,
8,4254.36,4117.44,4075.9,3879.49,4357.44,4200.51,4171.79,4152.31,4231.79,4161.03,4110.77,4205.13,4156.41,4243.08,2043,2035,10.056,0,0,0,0,
9,4252.82,4114.87,4079.49,3872.31,4340.51,4191.28,4169.23,4149.23,4226.15,4173.85,4118.97,4212.82,4156.41,4240,2042,2037,10.065,0,0,0,0,
10,4241.54,4100.51,4070.26,3867.18,4330.26,4184.1,4159.49,4137.44,4214.87,4160.51,4109.23,4202.56,4145.64,4227.18,2041,2038,10.072,0,0,0,0,
11,4225.13,4091.79,4055.38,3862.56,4324.62,4186.15,4147.69,4135.9,4210.26,4137.44,4097.95,4190.26,4144.62,4213.85,2043,2038,10.081,0,0,0,0,
12,4218.46,4093.33,4052.82,3856.41,4327.18,4186.67,4141.03,4142.05,4213.33,4140.51,4105.64,4192.31,4151.28,4208.21,2042,2041,10.088,0,0,0,0,
13,4217.44,4094.87,4053.33,3854.87,4341.03,4188.21,4141.03,4135.9,4213.85,4143.59,4107.18,4192.82,4146.67,4206.15,2042,2040,10.095,0,0,0,0,
14,4204.62,4089.23,4042.05,3852.31,4332.31,4189.74,4140,4120.51,4208.21,4132.31,4092.31,4183.08,4136.41,4202.56,2043,2040,10.103,0,0,0,0,
15,4188.72,4080.51,4028.21,3842.56,4311.79,4183.59,4129.74,4110.26,4204.1,4131.28,4085.13,4174.36,4132.31,4192.31,2044,2039,10.111,0,0,0,0,
16,4178.46,4072.31,4016.92,3835.38,4313.85,4175.38,4114.87,4100.51,4196.92,4123.59,4082.56,4165.13,4122.05,4176.41,2045,2039,10.119,0,0,0,0,
17,4172.31,4064.1,4012.31,3834.36,4312.82,4174.36,4109.23,4097.44,4189.74,4111.79,4081.03,4158.97,4117.44,4175.9,2045,2036,10.127,0,0,0,0,
18,4176.41,4063.59,4021.54,3830.77,4294.87,4180.51,4111.28,4103.59,4192.82,4126.67,4092.31,4169.74,4133.85,4187.18,2046,2036,10.135,0,0,0,0,
19,4186.15,4070.77,4026.67,3826.67,4291.79,4182.56,4107.18,4098.97,4193.33,4132.31,4101.03,4177.95,4137.44,4182.05,2046,2036,10.143,0,0,0,0,
20,4184.1,4067.69,4020,3824.1,4295.38,4182.05,4100.51,4087.18,4182.05,4105.64,4094.87,4167.18,4126.67,4176.41,2046,2037,10.151,0,0,0,0,
21,4174.36,4051.28,4017.95,3816.41,4287.18,4181.54,4098.97,4085.64,4180.51,4098.46,4092.82,4167.18,4131.79,4185.64,2047,2039,10.158,0,0,0,0,
22,4171.79,4048.72,4021.03,3814.87,4297.95,4178.97,4096.92,4086.15,4181.03,4122.05,4096.41,4174.87,4132.31,4177.44,2048,2038,10.166,0,0,0,0,
23,4171.79,4054.87,4017.95,3817.44,4308.72,4181.54,4091.79,4081.03,4173.33,4126.15,4088.21,4168.21,4118.97,4161.03,2048,2036,10.174,0,0,0,0,
24,4169.23,4044.1,4014.87,3808.72,4285.13,4188.72,4086.15,4082.56,4173.33,4103.59,4079.49,4158.97,4119.49,4164.62,2048,2035,10.182,0,0,0,0,
25,4162.05,4030.26,4012.82,3798.46,4265.13,4185.64,4081.54,4085.64,4180,4093.85,4086.15,4155.38,4126.15,4167.18,2047,2035,10.19,0,0,0,0,
26,4152.82,4029.23,4009.74,3798.97,4271.28,4175.38,4076.92,4077.44,4173.85,4104.1,4089.23,4146.15,4118.97,4151.28,2049,2035,10.198,0,0,0,0,
27,4152.31,4031.28,4010.77,3798.97,4278.97,4178.97,4073.33,4068.21,4166.15,4108.72,4080.51,4137.95,4112.82,4142.05,2047,2036,10.207,0,0,0,0,
28,4157.44,4026.67,4012.82,3797.95,4281.03,4190.26,4073.85,4071.28,4169.23,4105.13,4078.46,4137.95,4115.38,4142.05,2047,2032,10.214,0,0,0,0,
29,4149.74,4016.92,4004.62,3803.08,4270.77,4188.72,4076.92,4070.77,4167.18,4095.9,4072.31,4132.82,4108.21,4127.18,2047,2033,10.222,0,0,0,0,
30,4132.82,4007.18,3996.41,3797.44,4254.87,4184.62,4072.31,4059.49,4162.05,4082.05,4054.36,4126.15,4094.36,4111.28,2046,2030,10.229,0,0,0,0,
31,4132.31,4006.67,3998.97,3788.72,4272.82,4189.23,4061.54,4050.77,4163.59,4086.67,4058.46,4128.21,4098.97,4113.85,2046,2031,10.237,0,0,0,0,
32,4143.08,4013.85,4005.64,3794.87,4287.69,4189.74,4058.97,4049.74,4163.59,4094.87,4073.85,4132.82,4116.41,4125.64,2046,2033,10.245,0,0,0,0,
33,4139.49,4007.18,4002.05,3792.31,4256.92,4182.56,4057.95,4043.08,4156.41,4072.82,4063.59,4130.26,4111.28,4123.08,2047,2035,10.253,0,0,0,0,
34,4126.15,3996.92,3993.85,3778.46,4249.23,4185.64,4049.74,4033.33,4151.79,4066.15,4049.23,4122.56,4089.23,4107.69,2046,2034,10.261,0,0,0,0,
35,4123.08,3994.36,3990.77,3784.62,4264.1,4191.28,4041.54,4032.82,4153.33,4086.15,4053.85,4117.95,4082.56,4099.49,2046,2032,10.272,0,0,0,0,
36,4121.03,3985.13,3985.64,3788.72,4247.18,4181.03,4036.41,4029.23,4148.72,4080,4053.33,4115.9,4085.13,4097.44,2046,2030,10.277,0,0,0,0,
37,4106.15,3965.64,3973.85,3770.77,4230.77,4172.31,4026.15,4015.38,4137.95,4053.33,4035.38,4111.28,4073.85,4085.13,2048,2027,10.285,0,0,0,0,
38,4096.41,3960,3969.74,3766.15,4241.03,4182.05,4018.46,4005.13,4135.38,4046.15,4032.82,4110.26,4065.13,4074.87,2047,2026,10.292,0,0,0,0,
39,4102.56,3966.15,3973.33,3774.36,4240.51,4189.23,4018.97,4003.59,4141.54,4054.36,4051.79,4116.92,4072.31,4082.56,2049,2027,10.3,0,0,0,0,
40,4098.46,3957.95,3967.18,3768.72,4222.05,4176.41,4012.82,4002.05,4140.51,4056.92,4053.33,4114.87,4072.31,4078.46,2049,2029,10.308,0,0,0,0,
41,4081.54,3945.64,3956.92,3763.59,4209.74,4165.13,4002.05,4001.03,4133.33,4052.31,4033.33,4100,4063.08,4054.36,2048,2034,10.316,0,0,0,0,
42,4077.44,3947.69,3954.87,3769.23,4214.87,4173.33,3997.44,4006.67,4133.85,4049.23,4027.69,4094.36,4066.15,4051.28,2049,2032,10.324,0,0,0,0,
43,4075.38,3943.59,3947.69,3768.21,4216.92,4180,3992.31,3997.44,4128.21,4042.05,4028.72,4093.85,4066.67,4054.36,2049,2032,10.333,0,0,0,0,
44,4059.49,3922.56,3933.33,3757.44,4200.51,4167.18,3987.18,3986.67,4115.38,4016.41,4016.41,4079.49,4050.26,4034.36,2052,2032,10.34,0,0,0,0,
45,4050.77,3909.23,3926.15,3749.74,4185.64,4153.85,3981.03,3987.69,4114.87,3995.38,4004.62,4068.21,4041.54,4022.05,2051,2031,10.348,0,0,0,0,
46,4050.77,3910.77,3926.67,3745.64,4176.92,4152.82,3971.79,3981.03,4118.46,4002.05,3999.49,4068.72,4044.62,4024.62,2052,2031,10.355,0,0,0,0,
47,4042.05,3911.28,3926.67,3744.1,4171.79,4158.46,3968.21,3969.23,4112.82,4012.31,3994.36,4066.67,4042.56,4021.54,2052,2031,10.363,0,0,0,0,
48,4039.49,3906.15,3925.13,3747.18,4190.77,4159.49,3966.67,3967.18,4106.15,4016.41,3992.82,4058.46,4042.56,4015.38,2052,2033,10.371,0,0,0,0,
49,4041.54,3902.56,3924.62,3747.69,4203.08,4156.92,3958.97,3965.64,4107.69,4016.41,3997.95,4057.95,4050.77,4012.31,2052,2031,10.379,0,0,0,0,
50,4027.69,3904.62,3926.15,3739.49,4183.59,4156.41,3951.28,3959.49,4110.77,4005.64,3997.95,4060.51,4053.33,4006.15,2052,2030,10.387,0,0,0,0,
51,4015.38,3903.59,3928.21,3732.31,4174.36,4157.95,3948.72,3960.51,4105.64,4005.13,3992.31,4055.38,4051.79,3999.49,2051,2032,10.396,0,0,0,0,
52,4019.49,3893.85,3925.64,3732.82,4184.62,4158.46,3942.05,3955.38,4094.36,4002.56,3986.15,4042.56,4047.18,3993.33,2050,2032,10.403,0,0,0,0,
53,4014.36,3881.54,3914.36,3727.18,4170.77,4155.38,3930.77,3946.15,4089.23,3986.15,3981.54,4031.28,4036.92,3986.15,2049,2034,10.411,0,0,0,0,
54,3998.46,3875.9,3905.64,3713.33,4142.05,4151.79,3926.67,3939.49,4092.31,3977.95,3970.77,4025.13,4026.67,3980.51,2048,2036,10.419,0,0,0,0,
55,3997.44,3877.95,3911.28,3712.31,4158.97,4158.97,3940,3934.87,4094.36,3986.15,3967.18,4026.67,4029.74,3977.44,2047,2035,10.426,0,0,0,0,
56,4007.18,3880,3913.85,3720.51,4188.72,4171.79,3944.62,3935.38,4094.36,3996.41,3977.95,4028.72,4041.03,3980,2048,2037,10.434,0,0,0,0,
57,4014.36,3877.95,3908.72,3721.03,4175.38,4167.69,3926.15,3935.38,4090.77,3997.44,3984.1,4025.64,4047.69,3984.1,2046,2034,10.442,0,0,0,0,
58,4015.38,3880,3915.9,3724.1,4160,4152.82,3915.9,3925.13,4086.67,3994.36,3974.87,4018.97,4047.18,3979.49,2045,2034,10.45,0,0,0,0,
59,4013.85,3880,3924.62,3733.33,4156.92,4152.31,3922.05,3910.77,4089.23,3991.79,3967.69,4016.92,4043.59,3973.33,2043,2034,10.458,0,0,0,0,
60,4006.15,3866.15,3912.82,3729.74,4144.1,4156.92,3921.54,3901.54,4084.62,3989.23,3965.64,4012.82,4038.46,3969.74,2043,2034,10.466,0,0,0,0,
61,3994.36,3858.46,3904.62,3721.54,4142.05,4153.85,3913.85,3896.92,4076.92,3982.56,3962.05,4005.64,4035.38,3964.62,2043,2038,10.474,0,0,0,0,
62,3988.21,3862.56,3912.31,3723.08,4152.31,4153.33,3911.28,3895.38,4084.62,3975.38,3957.44,3998.97,4032.31,3956.92,2043,2037,10.482,0,0,0,0,
63,3984.1,3861.03,3907.18,3725.13,4142.56,4155.38,3908.21,3893.33,4088.21,3977.95,3952.82,3987.69,4030.26,3951.28,2043,2035,10.489,0,0,0,0,
64,3980.51,3854.36,3898.46,3724.1,4130.26,4154.87,3904.62,3892.31,4081.03,3981.54,3955.9,3984.62,4031.28,3948.72,2044,2035,10.506,0,0,0,0,
65,3982.56,3857.95,3906.15,3726.15,4135.38,4155.9,3903.59,3898.46,4086.67,3984.62,3968.21,3994.36,4037.95,3952.82,2046,2035,10.507,0,0,0,0,
66,3987.69,3866.15,3913.33,3730.77,4144.1,4156.92,3901.54,3901.54,4093.85,3990.26,3977.44,4001.03,4050.77,3957.44,2046,2037,10.513,0,0,0,0,
67,3990.26,3864.1,3911.79,3735.38,4137.95,4154.87,3900.51,3894.87,4089.23,3989.74,3974.87,3998.46,4055.9,3957.44,2046,2037,10.522,0,0,0,0,
68,3985.13,3859.49,3911.28,3736.41,4125.13,4153.85,3901.54,3894.36,4090.77,3980.51,3970.77,3997.44,4047.18,3957.95,2046,2038,10.529,0,0,0,0,
69,3974.87,3856.92,3911.79,3732.31,4126.67,4156.41,3901.54,3896.41,4091.79,3979.49,3966.15,3997.95,4040,3954.36,2047,2038,10.537,0,0,0,0,
70,3971.28,3851.79,3910.77,3729.74,4131.28,4155.9,3897.95,3887.69,4083.59,3992.31,3964.1,3996.41,4038.46,3947.18,2048,2037,10.545,0,0,0,0,
71,3975.38,3843.59,3911.28,3729.74,4110.77,4151.79,3894.87,3883.59,4086.67,3996.92,3967.69,3991.79,4034.36,3947.69,2047,2036,10.552,0,0,0,0,
72,3970.26,3840,3911.28,3728.72,4090.26,4150.26,3887.18,3888.72,4093.33,3982.56,3968.21,3985.13,4031.79,3949.23,2048,2035,10.56,0,0,0,0,
73,3951.28,3835.9,3907.69,3726.67,4100.51,4151.79,3878.97,3877.44,4080.51,3965.64,3964.62,3978.97,4029.23,3933.33,2048,2034,10.569,0,0,0,0,
74,3941.54,3828.21,3904.1,3725.64,4115.38,4151.28,3876.41,3863.08,4071.28,3966.67,3963.08,3981.03,4028.21,3926.15,2048,2035,10.582,0,0,0,0,
75,3940.51,3822.05,3904.62,3727.18,4111.79,4146.15,3871.79,3866.67,4076.92,3980,3960,3979.49,4030.26,3934.87,2047,2036,10.585,0,0,0,0,
76,3934.87,3821.03,3905.13,3728.72,4103.08,4147.18,3864.62,3868.72,4076.92,3983.59,3954.87,3972.82,4026.15,3925.64,2046,2035,10.592,0,0,0,0,
77,3931.28,3823.59,3904.1,3729.23,4099.49,4153.85,3868.21,3868.21,4072.31,3974.36,3955.9,3970.26,4022.56,3910.77,2044,2036,10.6,0,0,0,0,
78,3931.28,3818.46,3906.67,3724.62,4089.74,4154.87,3871.28,3870.77,4070.77,3966.67,3958.46,3970.26,4025.13,3914.36,2047,2034,10.608,0,0,0,0,
79,3925.64,3809.23,3908.21,3716.92,4074.36,4151.28,3864.62,3870.77,4071.28,3965.13,3955.38,3962.05,4022.56,3913.33,2045,2036,10.622,0,0,0,0,
80,3923.59,3807.69,3908.72,3723.59,4082.05,4153.85,3867.69,3872.31,4075.38,3967.18,3954.87,3959.49,4023.08,3906.15,2046,2034,10.625,0,0,0,0,
81,3927.69,3811.28,3910.77,3733.85,4106.15,4158.46,3874.87,3871.79,4073.85,3971.79,3949.74,3968.21,4025.13,3910.77,2048,2036,10.631,0,0,0,0,
82,3925.13,3813.33,3906.15,3730.77,4108.72,4155.9,3866.15,3856.41,4061.03,3976.41,3936.92,3964.62,4020,3910.26,2048,2035,10.64,0,0,0,0,
83,3927.69,3816.92,3903.59,3726.67,4098.46,4155.38,3861.03,3851.79,4060.51,3980,3935.38,3958.97,4027.69,3908.72,2047,2038,10.647,0,0,0,0,
84,3932.82,3816.41,3905.64,3725.64,4098.46,4158.46,3863.59,3862.05,4074.36,3975.9,3945.64,3963.59,4038.46,3916.41,2047,2039,10.655,0,0,0,0,
85,3922.56,3805.64,3900.51,3716.92,4088.21,4150.77,3853.33,3848.72,4071.28,3962.05,3936.41,3954.87,4013.85,3905.64,2047,2039,10.663,0,0,0,0,
86,3905.64,3786.67,3889.23,3711.79,4066.15,4138.97,3837.95,3827.18,4053.33,3946.15,3918.97,3936.92,3978.46,3876.92,2047,2039,10.671,0,0,0,0,
87,3897.95,3774.36,3882.05,3713.33,4060,4132.82,3828.72,3826.15,4043.59,3945.64,3914.87,3931.28,3970.77,3865.13,2046,2041,10.679,0,0,0,0,
88,3897.44,3777.95,3884.1,3711.28,4049.74,4129.74,3826.15,3830.26,4043.59,3953.33,3907.69,3929.74,3982.56,3868.21,2046,2038,10.686,0,0,0,0,
89,3902.05,3784.1,3893.33,3709.74,4040,4133.33,3830.77,3831.79,4048.72,3947.69,3904.1,3928.72,3993.33,3872.82,2046,2040,10.695,0,0,0,0,
90,3904.62,3781.54,3896.92,3713.85,4056.41,4139.49,3832.82,3834.36,4055.9,3942.05,3913.33,3935.9,3993.85,3875.38,2046,2038,10.702,0,0,0,0,
91,3899.49,3776.41,3892.31,3717.44,4064.1,4138.46,3831.79,3834.36,4056.92,3951.79,3917.95,3940,3988.72,3871.79,2046,2037,10.71,0,0,0,0,
92,3896.41,3771.28,3891.79,3718.97,4049.74,4135.9,3834.36,3832.31,4054.87,3951.79,3914.87,3935.38,3986.15,3870.77,2045,2035,10.722,0,0,0,0,
93,3900.51,3767.69,3897.95,3720,4048.72,4140,3832.82,3831.28,4059.49,3943.08,3917.95,3929.23,3987.18,3872.82,2044,2035,10.726,0,0,0,0,
94,3896.92,3768.72,3897.44,3718.97,4051.79,4138.97,3824.1,3820,4061.54,3948.21,3918.97,3915.38,3990.26,3870.26,2046,2036,10.735,0,0,0,0,
95,3885.13,3766.15,3886.67,3715.9,4043.08,4129.74,3816.41,3807.18,4049.74,3951.28,3910.77,3903.59,3992.31,3863.59,2045,2035,10.741,0,0,0,0,
96,3884.1,3760,3882.56,3719.49,4028.21,4122.56,3818.97,3806.67,4043.59,3945.64,3908.21,3902.05,3989.23,3854.87,2045,2033,10.75,0,0,0,0,
97,3889.23,3763.08,3893.33,3724.62,4017.95,4123.59,3826.15,3807.69,4049.23,3944.62,3908.72,3905.64,3985.64,3849.74,2043,2034,10.757,0,0,0,0,
98,3886.15,3767.18,3897.95,3720.51,4037.44,4125.13,3822.56,3803.08,4046.67,3938.46,3906.15,3907.18,3983.59,3849.74,2045,2038,10.765,0,0,0,0,
99,3882.05,3765.64,3890.77,3720.51,4064.62,4125.13,3816.41,3806.15,4036.92,3917.44,3901.03,3904.1,3981.03,3847.69,2044,2036,10.773,0,0,0,0,
100,3878.46,3753.85,3884.62,3720.51,4032.31,4123.08,3816.41,3816.41,4033.33,3900.51,3895.9,3893.33,3973.33,3836.92,2045,2036,10.781,0,0,0,0,
101,3875.9,3748.21,3887.69,3722.05,3993.85,4120.51,3818.46,3823.59,4035.9,3915.9,3895.9,3888.72,3966.67,3828.72,2046,2037,10.789,0,0,0,0,
102,3879.49,3758.46,3903.08,3731.28,4029.74,4124.62,3821.03,3837.95,4041.03,3945.13,3907.18,3900,3975.9,3832.31,2047,2037,10.8,0,0,0,0,
103,3883.08,3761.03,3907.69,3729.74,4055.9,4125.13,3822.05,3849.74,4043.08,3946.67,3913.33,3905.13,3989.74,3838.97,2047,2038,10.805,0,0,0,0,
104,3880.51,3752.31,3896.41,3718.97,4019.49,4115.38,3815.9,3840,4037.95,3932.31,3904.62,3901.54,3990.26,3841.03,2047,2038,10.813,0,0,0,0,
105,3884.1,3753.33,3898.97,3723.08,4004.62,4112.31,3811.79,3831.79,4037.44,3934.36,3902.56,3902.56,3985.64,3842.05,2046,2037,10.82,0,0,0,0,
106,3885.64,3758.97,3909.23,3731.79,4018.97,4118.97,3815.9,3837.44,4045.13,3937.95,3912.31,3906.15,3985.64,3844.1,2047,2039,10.828,0,0,0,0,
107,3880,3750.77,3908.21,3730.26,4001.54,4119.49,3813.85,3832.82,4041.54,3930.77,3916.92,3905.64,3983.08,3841.03,2047,2037,10.836,0,0,0,0,
108,3879.49,3744.1,3907.18,3726.15,3996.41,4112.82,3806.15,3811.79,4030.77,3934.36,3910.77,3904.62,3981.54,3837.95,2046,2035,10.844,0,0,0,0,
109,3881.03,3749.74,3910.26,3726.67,4025.64,4115.9,3807.69,3803.08,4030.26,3935.38,3904.1,3902.56,3979.49,3836.92,2045,2035,10.852,0,0,0,0,
110,3880,3751.79,3912.31,3733.85,4015.9,4120,3810.26,3812.82,4031.28,3926.15,3909.23,3900.51,3976.92,3836.92,2046,2036,10.86,0,0,0,0,
111,3877.44,3747.69,3913.33,3737.44,3988.72,4111.28,3803.08,3817.44,4024.1,3928.21,3914.36,3901.03,3982.05,3836.41,2047,2036,10.868,0,0,0,0,
112,3877.44,3748.21,3907.69,3726.15,4001.03,4103.08,3797.44,3808.72,4022.05,3935.9,3907.18,3902.05,3990.26,3834.87,2047,2036,10.877,0,0,0,0,
113,3877.44,3746.67,3901.03,3723.08,4002.05,4104.62,3801.03,3804.1,4023.59,3924.62,3900,3897.95,3987.18,3828.72,2047,2037,10.884,0,0,0,0,
114,3879.49,3736.41,3903.59,3734.87,3980.51,4105.64,3805.13,3807.69,4022.56,3920.51,3902.56,3888.21,3985.64,3824.1,2048,2037,10.891,0,0,0,0,
115,3880,3731.79,3907.18,3735.9,3991.28,4104.62,3804.1,3809.74,4022.56,3935.38,3906.15,3892.82,3991.28,3824.1,2047,2037,10.899,0,0,0,0,
116,3873.85,3731.28,3908.21,3730.77,4005.13,4105.13,3802.56,3807.18,4021.54,3934.87,3905.64,3903.59,3985.64,3820.51,2047,2037,10.907,0,0,0,0,
117,3868.72,3725.13,3908.21,3731.28,3985.64,4099.49,3800.51,3806.15,4017.44,3924.1,3900.51,3890.77,3979.49,3810.77,2047,2038,10.915,0,0,0,0,
118,3870.26,3727.69,3910.26,3735.38,3977.44,4094.87,3800,3806.15,4015.38,3928.72,3900.51,3874.87,3985.64,3806.15,2047,2038,10.923,0,0,0,0,
119,3869.74,3735.38,3912.82,3737.44,3992.82,4102.05,3798.97,3800,4014.87,3930.26,3904.1,3883.08,3987.69,3809.74,2046,2039,10.931,0,0,0,0,
120,3865.64,3726.15,3911.79,3736.41,3993.85,4101.54,3798.46,3800.51,4014.36,3916.92,3896.41,3894.87,3983.59,3810.77,2045,2037,10.939,0,0,0,0,
121,3864.62,3713.33,3909.23,3735.38,3975.38,4088.21,3802.05,3811.79,4014.36,3913.85,3888.21,3891.28,3977.44,3803.08,2044,2034,10.947,0,0,0,0,
122,3859.49,3714.87,3905.64,3733.85,3966.15,4079.49,3798.46,3807.18,4008.21,3912.31,3888.21,3871.79,3975.38,3792.31,2044,2034,10.954,0,0,0,0,
123,3857.44,3714.87,3903.08,3734.87,3976.92,4086.15,3795.9,3797.95,4006.67,3897.95,3888.21,3870.26,3976.92,3794.87,2044,2035,10.962,0,0,0,0,
124,3861.03,3710.77,3906.15,3738.97,3976.41,4087.69,3798.97,3803.08,4012.31,3902.05,3880.51,3888.72,3975.9,3798.97,2042,2034,10.97,0,0,0,0,
125,3854.36,3712.82,3908.21,3739.49,3960.51,4078.97,3796.41,3807.18,4010.26,3917.95,3872.31,3877.44,3970.26,3783.59,2040,2034,10.979,0,0,0,0,
126,3852.31,3712.82,3907.69,3736.41,3957.44,4077.95,3794.87,3809.74,4004.1,3910.26,3865.13,3866.67,3963.08,3782.56,2041,2037,10.987,0,0,0,0,
127,3865.64,3714.87,3913.85,3737.44,3966.67,4080,3798.46,3817.95,4002.05,3898.97,3856.92,3897.95,3961.54,3803.59,2041,2036,10.996,0,0,0,0,
128,3860,3713.85,3912.82,3737.44,3962.05,4075.38,3792.31,3806.15,3997.95,3900.51,3847.18,3900,3969.23,3801.03,2041,2038,11.002,0,0,0,0,
0,3848.21,3703.59,3907.69,3732.31,3940,4068.72,3783.59,3786.67,3987.18,3879.49,3840,3882.05,3971.28,3801.54,2041,2038,11.01,0,0,0,0,
1,3855.9,3703.59,3910.77,3742.05,3928.72,4064.62,3786.15,3792.82,3983.59,3858.97,3837.44,3890.26,3991.28,3807.69,2042,2037,11.017,0,0,0,0,
2,3857.95,3705.13,3909.74,3758.97,3933.33,4056.41,3779.49,3795.9,3984.62,3874.36,3833.33,3900,4036.41,3796.41,2043,2034,11.025,0,0,0,0,
3,3848.72,3698.46,3905.64,3763.59,3930.26,4046.15,3765.13,3771.79,3978.46,3882.05,3833.85,3885.64,4100.51,3788.72,2046,2035,11.034,0,0,0,0,
4,3849.74,3708.72,3907.69,3774.87,3925.64,4045.64,3768.21,3762.56,3970.77,3845.13,3842.56,3880.51,4201.54,3803.59,2046,2032,11.041,0,0,0,0,
5,3862.05,3708.72,3916.41,3797.44,3925.64,4049.23,3774.87,3775.9,3967.18,3818.46,3854.36,3884.62,4383.08,3810.77,2047,2032,11.049,0,0,0,0,
6,3849.23,3699.49,3911.79,3808.72,3923.08,4048.72,3773.33,3784.62,3977.95,3854.87,3870.26,3849.74,4636.92,3766.15,2048,2033,11.057,0,0,0,0,
7,3817.95,3727.18,3884.1,3815.9,3913.85,4043.59,3774.36,3785.64,3991.79,3890.77,3887.69,3807.69,4866.15,3717.95,2048,2034,11.065,0,0,0,0,
8,3810.26,3747.18,3868.72,3833.33,3889.74,4030.26,3769.74,3775.9,3977.95,3844.1,3884.1,3816.41,4996.41,3726.67,2046,2038,11.073,0,0,0,0,
9,3827.18,3762.05,3893.33,3857.95,3872.31,4023.08,3760.51,3766.15,3960.51,3797.44,3868.21,3860,5090.26,3760,2047,2039,11.081,0,0,0,0,
10,3835.38,3817.95,3916.92,3877.95,3887.18,4032.31,3772.31,3780.51,3977.44,3832.82,3880.51,3865.64,5211.28,3762.56,2049,2039,11.089,0,0,0,0,
11,3818.46,3845.64,3898.46,3885.64,3885.13,4029.23,3771.79,3788.21,3985.64,3856.41,3905.64,3815.38,5303.59,3733.85,2048,2040,11.097,0,0,0,0,
12,3812.31,3861.54,3881.54,3910.77,3855.38,4015.38,3748.72,3775.38,3968.72,3830.26,3909.74,3794.36,5328.72,3711.79,2047,2042,11.104,0,0,0,0,
13,3828.21,3964.1,3906.15,3955.9,3861.03,4021.03,3759.49,3788.21,3978.46,3837.44,3922.05,3829.23,5318.97,3717.95,2048,2043,11.112,0,0,0,0,
14,3825.64,4104.1,3922.05,3969.74,3863.59,4021.54,3770.77,3801.54,3992.31,3863.08,3953.85,3841.03,5295.9,3742.56,2046,2044,11.121,0,0,0,0,
15,3790.26,4183.59,3888.72,3953.33,3829.74,4004.1,3742.56,3778.97,3978.46,3856.92,3961.54,3795.38,5278.46,3725.64,2045,2045,11.128,0,0,0,0,
16,3765.13,4234.87,3854.87,3957.44,3811.28,4001.03,3731.28,3766.67,3969.23,3837.44,3930.77,3785.13,5237.95,3698.46,2045,2045,11.136,0,0,0,0,
17,3768.72,4307.18,3868.72,3988.21,3804.62,4004.62,3745.64,3775.9,3973.33,3838.97,3928.21,3803.08,5182.05,3699.49,2044,2046,11.144,0,0,0,0,
18,3767.69,4376.41,3880.51,4009.23,3782.05,3989.23,3728.21,3758.46,3958.46,3838.46,3949.23,3783.08,5133.85,3685.13,2044,2046,11.151,0,0,0,0,
19,3754.87,4432.82,3855.9,4012.31,3774.87,3980.51,3713.33,3733.85,3942.56,3825.13,3952.31,3768.21,5095.9,3669.74,2045,2044,11.159,0,0,0,0,
20,3752.82,4507.18,3847.18,4020.51,3787.69,3994.87,3731.79,3745.64,3954.87,3827.69,3954.36,3777.44,5067.69,3686.67,2045,2042,11.167,0,0,0,0,
21,3770.77,4592.82,3873.33,4044.62,3792.31,4004.1,3742.56,3766.15,3969.74,3841.54,3973.85,3790.77,5040,3719.49,2046,2041,11.175,0,0,0,0,
22,3795.9,4637.95,3891.79,4061.54,3789.23,3996.92,3741.54,3767.18,3967.18,3842.05,3990.77,3804.62,5001.54,3743.59,2047,2040,11.189,0,0,0,0,
23,3811.28,4663.59,3889.74,4066.15,3783.08,3992.82,3742.56,3760,3964.62,3837.95,4007.18,3813.85,4968.72,3765.13,2047,2036,11.192,0,0,0,0,
24,3828.72,4698.46,3902.05,4074.36,3778.46,3997.95,3745.64,3763.59,3970.26,3843.59,4027.18,3824.62,4933.85,3789.74,2048,2036,11.199,0,0,0,0,
25,3835.9,4696.41,3910.77,4070.26,3784.1,3997.44,3744.62,3766.15,3969.23,3844.1,4017.95,3826.67,4871.79,3789.74,2049,2035,11.207,0,0,0,0,
26,3824.1,4674.87,3896.41,4063.08,3805.13,3995.9,3737.95,3761.03,3960.51,3846.67,4003.08,3808.72,4817.95,3778.97,2048,2037,11.215,0,0,0,0,
27,3825.13,4653.85,3891.79,4069.23,3798.46,3993.33,3733.33,3757.95,3955.9,3836.92,4007.69,3803.59,4763.59,3787.69,2048,2037,11.222,0,0,0,0,
28,3832.82,4613.33,3898.46,4063.59,3769.23,3989.74,3734.87,3757.44,3953.33,3818.46,4005.13,3818.46,4676.41,3794.87,2048,2039,11.23,0,0,0,0,
29,3832.31,4555.38,3904.62,4047.69,3791.79,3995.38,3738.97,3757.44,3955.38,3835.38,4002.05,3823.59,4596.92,3789.23,2048,2039,11.238,0,0,0,0,
30,3831.79,4484.1,3905.64,4036.92,3841.03,3998.97,3741.54,3755.9,3956.41,3840,4007.69,3823.08,4520.51,3789.74,2049,2040,11.246,0,0,0,0,
31,3834.36,4391.28,3904.62,4023.08,3842.05,3993.33,3740,3757.44,3954.36,3812.82,4004.1,3829.23,4409.74,3787.69,2049,2040,11.254,0,0,0,0,
32,3840,4290.26,3913.33,4014.87,3810.77,3990.77,3740,3767.69,3953.85,3823.59,3996.41,3838.46,4302.56,3784.62,2049,2037,11.262,0,0,0,0,
33,3845.64,4192.31,3926.15,4005.13,3803.59,3991.79,3746.15,3778.46,3956.41,3854.87,3997.95,3844.1,4211.79,3792.82,2048,2038,11.27,0,0,0,0,
34,3847.69,4100,3928.72,3983.08,3835.38,3996.92,3754.36,3780,3959.49,3852.31,3999.49,3848.72,4099.49,3794.36,2047,2038,11.277,0,0,0,0,
35,3848.21,4012.82,3925.64,3967.18,3862.56,4002.56,3757.95,3771.28,3955.9,3837.44,3992.31,3850.77,3985.64,3785.13,2047,2038,11.285,0,0,0,0,
36,3851.28,3933.85,3928.21,3956.92,3855.38,4000.51,3760.51,3769.23,3955.38,3844.62,3987.18,3853.85,3900.51,3782.56,2046,2037,11.304,0,0,0,0,
37,3850.77,3861.03,3932.31,3936.41,3850.26,3997.95,3764.62,3775.9,3959.49,3854.36,3983.59,3855.9,3815.9,3783.59,2047,2039,11.309,0,0,0,0,
38,3847.69,3800,3935.9,3915.38,3869.74,4000,3769.23,3784.62,3962.05,3854.87,3980.51,3858.46,3734.36,3785.13,2046,2039,11.317,0,0,0,0,
39,3846.67,3755.38,3939.49,3901.03,3870.77,3997.44,3769.74,3791.28,3958.97,3851.28,3982.05,3864.1,3678.97,3785.13,2046,2040,11.325,0,0,0,0,
40,3849.74,3717.95,3938.97,3883.59,3855.38,3994.87,3769.23,3800,3958.97,3847.18,3985.64,3865.64,3635.38,3776.41,2045,2041,11.336,0,0,0,0,
41,3847.69,3682.05,3936.41,3863.08,3855.9,3996.92,3773.33,3801.03,3964.62,3841.03,3985.64,3859.49,3591.79,3763.08,2045,2041,11.341,0,0,0,0,
42,3843.59,3653.85,3937.44,3850.26,3871.28,4002.56,3780.51,3795.9,3966.15,3839.49,3983.59,3858.97,3563.08,3761.54,2045,2040,11.357,0,0,0,0,
43,3853.85,3641.54,3944.1,3845.13,3891.28,4010.26,3786.67,3805.13,3967.18,3850.26,3981.03,3872.31,3556.92,3773.33,2044,2042,11.36,0,0,0,0,
44,3859.49,3628.21,3941.54,3837.95,3894.87,4007.69,3785.13,3815.38,3967.69,3853.85,3972.82,3872.31,3554.36,3775.9,2045,2040,11.37,0,0,0,0,
45,3852.82,3608.72,3930.26,3826.67,3889.23,4000.51,3778.46,3808.21,3967.69,3846.15,3957.44,3861.54,3540.51,3772.31,2044,2041,11.372,0,0,0,0,
46,3851.79,3595.9,3933.33,3828.21,3890.77,4000,3774.36,3795.38,3967.18,3846.67,3952.31,3868.72,3533.33,3774.87,2046,2042,11.384,0,0,0,0,
47,3852.31,3582.56,3941.54,3829.23,3886.15,4001.54,3771.28,3794.87,3963.08,3857.44,3956.41,3877.44,3536.41,3772.31,2046,2042,11.388,0,0,0,0,
48,3851.28,3569.23,3940,3821.03,3881.03,4002.05,3770.77,3806.67,3958.97,3863.08,3953.85,3873.85,3538.46,3770.77,2045,2044,11.399,0,0,0,0,
49,3864.1,3569.74,3941.03,3822.05,3886.15,3998.97,3777.95,3815.38,3961.54,3854.36,3948.21,3877.95,3544.62,3784.62,2044,2044,11.404,0,0,0,0,
50,3875.38,3573.33,3948.72,3827.18,3887.18,3992.82,3778.46,3803.59,3965.13,3842.05,3947.18,3887.69,3549.74,3796.92,2045,2040,11.418,0,0,0,0,
51,3883.59,3571.28,3954.87,3826.67,3873.33,3990.26,3769.74,3786.15,3963.59,3845.13,3948.21,3885.13,3547.69,3804.62,2046,2038,11.421,0,0,0,0,
52,3903.59,3578.46,3961.54,3829.23,3868.72,3991.28,3773.85,3787.18,3962.05,3844.62,3945.64,3886.15,3551.79,3818.97,2046,2038,11.427,0,0,0,0,
53,3915.38,3587.18,3965.64,3833.33,3877.95,3988.21,3783.08,3791.28,3961.54,3819.49,3944.1,3896.92,3561.54,3836.41,2047,2038,11.435,0,0,0,0,
54,3918.97,3584.1,3967.69,3833.33,3883.59,3990.26,3781.03,3788.21,3962.56,3823.59,3947.69,3899.49,3562.05,3848.72,2047,2038,11.443,0,0,0,0,
55,3936.92,3588.72,3974.87,3832.31,3889.74,3995.9,3780.51,3791.28,3965.64,3860,3949.23,3897.44,3574.36,3856.92,2047,2039,11.452,0,0,0,0,
56,3948.72,3594.87,3977.95,3829.74,3902.05,3994.87,3785.13,3792.31,3964.62,3856.41,3952.82,3900.51,3596.41,3862.56,2046,2039,11.459,0,0,0,0,
57,3943.08,3584.62,3973.85,3825.64,3905.13,3998.46,3787.69,3797.44,3968.72,3844.62,3965.13,3902.56,3602.56,3867.69,2047,2037,11.467,0,0,0,0,
58,3943.08,3583.59,3973.85,3829.23,3901.03,4004.1,3790.26,3812.31,3976.92,3876.92,3970.77,3904.1,3609.74,3869.23,2046,2037,11.475,0,0,0,0,
59,3941.54,3592.31,3973.33,3830.77,3894.36,3995.38,3795.38,3815.9,3976.92,3884.62,3966.67,3906.67,3624.1,3864.62,2047,2036,11.482,0,0,0,0,
60,3929.23,3580.51,3970.77,3819.49,3879.49,3987.18,3800,3812.31,3976.41,3854.36,3966.15,3906.15,3620.51,3853.33,2047,2037,11.49,0,0,0,0,
61,3918.97,3566.67,3966.15,3817.44,3891.28,3995.9,3804.1,3810.26,3980,3864.1,3965.13,3906.67,3612.82,3841.54,2046,2036,11.498,0,0,0,0,
62,3916.41,3574.36,3961.54,3825.13,3926.67,4006.67,3803.59,3807.69,3981.03,3898.97,3963.08,3907.69,3633.33,3841.03,2045,2037,11.506,0,0,0,0,
63,3913.85,3580,3962.05,3824.1,3923.08,4006.67,3800,3814.36,3985.13,3903.59,3970.26,3904.62,3655.38,3845.64,2047,2040,11.515,0,0,0,0,
64,3911.28,3574.36,3972.31,3817.95,3909.23,4012.31,3809.23,3827.69,3988.21,3890.26,3975.9,3909.23,3654.87,3836.92,2046,2038,11.522,0,0,0,0,
65,3906.15,3569.74,3974.36,3821.03,3919.49,4020.51,3822.56,3834.87,3988.21,3877.95,3971.28,3917.44,3645.64,3816.41,2045,2039,11.53,0,0,0,0,
66,3891.79,3556.41,3963.08,3820.51,3901.54,4012.31,3820.51,3841.54,3989.74,3877.44,3965.64,3913.33,3640,3795.9,2045,2039,11.541,0,0,0,0,
67,3876.92,3542.05,3957.44,3815.9,3889.74,4007.69,3822.56,3846.67,3991.28,3894.87,3961.54,3903.59,3644.62,3791.79,2045,2039,11.546,0,0,0,0,
68,3884.62,3550.26,3966.15,3820.51,3938.97,4022.56,3833.33,3847.18,3991.28,3916.92,3963.08,3904.62,3662.05,3805.64,2044,2037,11.56,0,0,0,0,
69,3895.38,3566.15,3972.82,3827.18,3951.28,4026.67,3804.1,3844.1,3990.77,3908.21,3966.67,3908.21,3672.82,3807.69,2045,2038,11.561,0,0,0,0,
70,3883.59,3568.72,3964.1,3823.08,3914.36,4016.41,3757.95,3840,3987.69,3888.21,3961.54,3905.13,3665.64,3788.72,2046,2038,11.569,0,0,0,0,
71,3872.31,3567.18,3957.95,3817.44,3913.85,4018.46,3752.31,3840,3984.1,3906.15,3956.92,3900.51,3667.69,3778.97,2045,2038,11.577,0,0,0,0,
72,3879.49,3568.72,3963.59,3823.59,3927.18,4024.62,3763.59,3843.08,3987.69,3925.13,3956.41,3898.46,3684.62,3787.69,2046,2039,11.586,0,0,0,0,
73,3878.97,3565.64,3958.97,3827.18,3912.31,4020,3761.03,3839.49,3986.15,3897.95,3951.79,3895.9,3688.72,3781.54,2047,2039,11.593,0,0,0,0,
74,3871.28,3565.64,3952.82,3824.1,3919.49,4018.46,3763.59,3836.41,3981.03,3883.59,3947.69,3896.92,3682.56,3769.23,2048,2040,11.601,0,0,0,0,
75,3875.9,3569.74,3961.54,3825.64,3940.51,4024.1,3774.87,3841.54,3984.62,3901.54,3951.28,3901.03,3688.72,3775.9,2047,2038,11.608,0,0,0,0,
76,3878.97,3573.33,3968.72,3832.31,3923.59,4031.28,3776.41,3843.08,3990.77,3903.59,3955.38,3903.08,3704.62,3790.26,2047,2037,11.616,0,0,0,0,
77,3873.85,3573.85,3960.51,3835.38,3908.72,4025.13,3774.36,3842.05,3988.72,3897.95,3952.31,3902.56,3710.26,3792.31,2047,2038,11.624,0,0,0,0,
78,3872.82,3572.31,3954.87,3836.41,3933.85,4017.95,3776.92,3841.03,3985.13,3904.62,3949.23,3900,3707.69,3783.59,2047,2037,11.632,0,0,0,0,
79,3881.03,3580,3966.15,3841.03,3962.56,4032.82,3787.69,3849.23,3992.82,3916.92,3958.46,3903.59,3715.38,3781.54,2047,2040,11.64,0,0,0,0,
80,3893.33,3598.97,3983.08,3850.26,3957.95,4045.13,3799.49,3868.72,4003.59,3936.41,3970.77,3921.03,3736.41,3795.38,2047,2039,11.648,0,0,0,0,
81,3897.95,3607.69,3987.18,3857.95,3944.1,4035.38,3794.36,3875.38,3998.97,3936.41,3964.62,3931.28,3743.59,3805.64,2046,2040,11.659,0,0,0,0,
82,3893.33,3600,3980.51,3854.36,3946.15,4028.72,3786.15,3863.59,3989.23,3918.97,3949.23,3922.05,3732.82,3796.92,2048,2040,11.664,0,0,0,0,
83,3890.77,3598.97,3975.38,3849.74,3933.33,4029.23,3790.26,3853.33,3990.26,3911.79,3950.26,3918.46,3728.72,3790.77,2046,2040,11.672,0,0,0,0,
84,3887.69,3604.62,3974.36,3852.31,3916.92,4024.1,3793.33,3851.79,3990.77,3910.26,3963.08,3920.51,3734.87,3795.38,2045,2038,11.679,0,0,0,0,
85,3884.62,3606.15,3974.36,3851.28,3935.9,4028.72,3789.23,3852.31,3985.64,3915.9,3964.1,3917.44,3742.05,3794.87,2046,2038,11.687,0,0,0,0,
86,3890.77,3609.23,3981.03,3850.77,3968.21,4037.44,3792.31,3852.82,3990.77,3935.38,3961.54,3923.08,3750.77,3794.87,2044,2039,11.695,0,0,0,0,
87,3895.9,3619.49,3987.18,3854.87,3956.92,4031.28,3795.38,3851.28,3994.87,3940,3962.56,3928.21,3757.95,3802.05,2044,2039,11.703,0,0,0,0,
88,3890.77,3618.97,3986.15,3860,3920.51,4021.03,3791.28,3850.77,3986.15,3922.56,3957.95,3918.97,3761.03,3805.13,2044,2036,11.711,0,0,0,0,
89,3899.49,3616.41,3990.26,3867.69,3940.51,4026.67,3798.46,3863.08,3985.13,3924.1,3958.46,3925.64,3768.21,3810.77,2044,2034,11.719,0,0,0,0,
90,3912.82,3631.79,3994.36,3874.36,3977.44,4036.41,3805.13,3865.64,3992.82,3931.28,3956.41,3938.97,3771.79,3817.44,2045,2035,11.727,0,0,0,0,
91,3902.05,3643.59,3982.05,3867.18,3954.36,4031.79,3796.92,3849.23,3987.18,3922.56,3948.21,3927.18,3766.67,3812.82,2046,2035,11.735,0,0,0,0,
92,3894.36,3637.95,3974.87,3864.62,3927.69,4023.08,3792.82,3848.72,3980,3925.13,3943.59,3917.44,3770.26,3810.77,2047,2037,11.743,0,0,0,0,
93,3908.21,3637.95,3986.67,3877.44,3952.31,4028.21,3798.46,3862.05,3984.62,3942.05,3948.21,3928.72,3784.1,3817.44,2047,2037,11.75,0,0,0,0,
94,3914.36,3644.1,3993.85,3883.59,3965.13,4033.85,3804.1,3864.1,3989.74,3946.67,3956.92,3938.46,3786.67,3819.49,2048,2039,11.764,0,0,0,0,
95,3905.64,3643.08,3988.72,3878.97,3949.74,4029.74,3810.77,3868.21,3988.72,3940,3957.95,3936.92,3782.05,3817.44,2047,2039,11.767,0,0,0,0,
96,3904.1,3643.08,3985.13,3878.46,3955.38,4029.74,3815.9,3879.49,3988.21,3939.49,3951.28,3928.21,3784.62,3814.87,2048,2041,11.774,0,0,0,0,
97,3905.13,3648.72,3981.03,3878.46,3952.82,4031.28,3814.36,3876.41,3988.72,3934.87,3947.69,3921.54,3790.77,3812.31,2047,2042,11.782,0,0,0,0,
98,3900,3650.77,3975.38,3877.44,3936.92,4023.08,3809.23,3869.74,3988.72,3928.72,3945.64,3922.56,3788.21,3810.77,2047,2042,11.79,0,0,0,0,
99,3896.92,3648.21,3973.85,3876.92,3937.95,4018.46,3812.82,3875.9,3989.23,3933.85,3936.92,3926.15,3777.44,3807.69,2046,2042,11.798,0,0,0,0,
100,3893.85,3646.15,3973.85,3875.9,3929.23,4026.15,3819.49,3875.38,3985.13,3935.38,3930.26,3923.59,3771.79,3804.1,2046,2041,11.806,0,0,0,0,
101,3900,3654.87,3980,3877.44,3931.79,4033.85,3819.49,3871.28,3982.56,3930.26,3938.97,3927.18,3786.15,3813.33,2046,2039,11.813,0,0,0,0,
102,3914.36,3668.72,3993.33,3879.49,3961.54,4031.28,3824.1,3881.03,3990.77,3936.41,3949.23,3938.97,3809.23,3828.72,2046,2039,11.821,0,0,0,0,
103,3913.85,3666.67,3991.79,3877.44,3962.05,4025.13,3830.77,3880.51,3989.74,3951.28,3943.59,3941.03,3810.26,3826.15,2047,2039,11.829,0,0,0,0,
104,3902.56,3655.9,3977.95,3874.36,3931.28,4020,3822.56,3867.18,3980,3952.31,3933.33,3929.23,3802.05,3812.31,2047,2038,11.837,0,0,0,0,
105,3906.15,3662.05,3976.92,3877.44,3931.79,4018.97,3817.95,3870.77,3982.56,3943.08,3934.36,3928.21,3809.23,3817.95,2047,2041,11.845,0,0,0,0,
106,3914.87,3676.92,3986.15,3877.95,3946.15,4020.51,3829.23,3881.03,3990.77,3942.56,3937.95,3941.03,3820,3835.38,2047,2041,11.853,0,0,0,0,
107,3914.36,3679.49,3993.85,3881.54,3942.05,4022.05,3834.87,3883.59,3990.77,3947.69,3940,3946.15,3821.03,3837.95,2047,2041,11.861,0,0,0,0,
108,3922.05,3683.08,3998.46,3892.82,3953.85,4028.21,3832.82,3893.85,3995.9,3962.05,3948.21,3945.64,3827.18,3835.9,2047,2040,11.869,0,0,0,0,
109,3925.64,3691.79,3994.87,3894.36,3959.49,4032.82,3831.28,3896.41,3994.87,3969.74,3946.15,3941.54,3830.26,3839.49,2047,2039,11.876,0,0,0,0,
110,3915.38,3690.26,3986.15,3885.64,3945.13,4028.21,3831.79,3886.67,3981.54,3951.79,3932.31,3933.85,3817.44,3832.82,2048,2037,11.884,0,0,0,0,
111,3906.67,3683.08,3985.13,3878.97,3935.38,4021.54,3831.79,3883.08,3978.97,3929.74,3923.59,3931.79,3806.67,3819.49,2047,2039,11.892,0,0,0,0,
112,3901.54,3681.03,3983.59,3878.46,3933.33,4016.41,3824.1,3884.1,3980.51,3928.21,3921.54,3931.79,3808.72,3815.9,2049,2038,11.909,0,0,0,0,
113,3901.54,3683.59,3982.56,3882.56,3935.9,4011.28,3819.49,3882.56,3975.9,3938.97,3924.62,3931.28,3810.26,3820.51,2050,2040,11.912,0,0,0,0,
114,3905.13,3686.15,3985.64,3883.59,3923.59,4006.67,3825.64,3880.51,3973.85,3943.59,3922.05,3932.31,3810.77,3823.08,2050,2037,11.916,0,0,0,0,
115,3905.13,3687.18,3985.64,3878.46,3918.46,4006.67,3826.67,3883.08,3975.9,3944.1,3911.28,3932.31,3818.46,3820.51,2051,2039,11.924,0,0,0,0,
116,3908.21,3693.33,3989.23,3886.67,3942.05,4017.44,3826.67,3889.74,3979.49,3959.49,3918.46,3936.41,3825.13,3822.05,2049,2040,11.932,0,0,0,0,
117,3915.9,3697.95,3996.92,3893.33,3943.08,4025.13,3832.31,3892.31,3979.49,3966.67,3931.79,3943.59,3825.64,3829.23,2048,2042,11.939,0,0,0,0,
118,3911.28,3692.82,3994.87,3881.03,3918.46,4017.95,3829.23,3886.15,3976.92,3946.67,3927.18,3939.49,3827.18,3832.31,2047,2045,11.947,0,0,0,0,
119,3910.77,3691.28,3993.85,3880.51,3947.18,4016.41,3824.1,3891.79,3982.56,3945.13,3920.51,3938.46,3833.85,3834.36,2045,2047,11.955,0,0,0,0,
120,3921.03,3701.03,4001.54,3891.79,3963.08,4022.56,3828.21,3906.15,3990.77,3964.1,3922.56,3949.74,3839.49,3840,2045,2047,11.969,0,0,0,0,
121,3918.97,3709.74,4004.62,3891.28,3925.13,4023.08,3836.92,3908.72,3990.26,3958.97,3927.69,3953.85,3841.03,3841.54,2044,2045,11.971,0,0,0,0,
122,3911.79,3711.28,4002.56,3891.28,3946.67,4027.18,3839.49,3904.1,3984.62,3956.92,3933.33,3944.62,3843.59,3836.92,2044,2044,11.979,0,0,0,0,
123,3914.87,3713.33,4001.03,3894.87,3998.97,4038.97,3839.49,3904.1,3979.49,3971.79,3932.82,3937.95,3849.74,3840,2042,2038,11.987,0,0,0,0,
124,3918.46,3718.97,4000,3891.79,3978.46,4036.41,3838.46,3909.23,3976.41,3966.67,3929.74,3940,3851.79,3851.28,2042,2037,12.001,0,0,0,0,
125,3922.05,3724.1,4003.59,3890.77,3943.08,4024.1,3837.95,3910.26,3976.92,3952.82,3936.92,3948.21,3852.31,3852.31,2042,2036,12.002,0,0,0,0,
126,3919.49,3719.49,4000.51,3893.85,3947.69,4023.59,3837.44,3905.13,3971.79,3948.72,3939.49,3944.1,3850.77,3841.03,2042,2036,12.014,0,0,0,0,
127,3913.33,3717.95,3993.33,3891.79,3952.82,4027.18,3842.56,3904.1,3968.72,3947.69,3928.72,3935.38,3851.28,3842.56,2043,2036,12.018,0,0,0,0,
128,3917.44,3729.23,3996.41,3890.77,3942.05,4023.59,3853.33,3908.72,3971.79,3955.38,3922.56,3943.08,3856.92,3853.33,2044,2036,12.026,0,0,0,0,
0,3921.03,3735.38,4004.1,3893.33,3934.36,4017.44,3856.41,3910.77,3969.74,3964.1,3927.69,3947.69,3855.38,3853.33,2044,2037,12.034,0,0,0,0,
1,3916.41,3728.21,4005.64,3894.87,3943.59,4020,3855.38,3909.74,3967.18,3961.03,3928.21,3938.46,3849.74,3848.21,2045,2037,12.042,0,0,0,0,
2,3923.08,3729.23,4010.26,3896.41,3967.18,4032.31,3860,3913.85,3974.87,3966.15,3927.18,3943.59,3855.9,3852.82,2045,2039,12.05,0,0,0,0,
3,3929.74,3740.51,4013.85,3902.56,3976.92,4038.97,3870.26,3920,3975.38,3969.23,3931.79,3958.46,3861.03,3863.08,2048,2037,12.058,0,0,0,0,
4,3926.15,3745.64,4011.79,3911.28,3958.97,4035.9,3876.41,3925.13,3970.77,3954.36,3935.9,3955.38,3856.92,3862.05,2048,2038,12.069,0,0,0,0,
5,3930.26,3749.23,4014.87,3907.69,3950.77,4033.85,3872.31,3933.33,3982.56,3958.46,3938.97,3953.85,3866.15,3857.44,2047,2037,12.073,0,0,0,0,
6,3938.97,3758.97,4018.46,3902.05,3976.92,4038.46,3869.23,3935.38,3995.38,3992.31,3947.69,3965.64,3888.72,3870.77,2048,2037,12.081,0,0,0,0,
7,3936.92,3765.64,4014.87,3905.13,3987.18,4039.49,3870.26,3925.64,3990.26,4001.54,3945.64,3964.1,3890.26,3890.26,2049,2038,12.089,0,0,0,0,
8,3932.82,3764.1,4014.87,3905.64,3962.56,4034.87,3874.87,3919.49,3982.05,3980.51,3936.41,3954.36,3876.41,3888.72,2049,2037,12.097,0,0,0,0,
9,3934.36,3764.62,4020.51,3900.51,3952.82,4035.38,3878.97,3927.69,3985.13,3978.97,3945.13,3961.54,3878.97,3881.03,2048,2038,12.105,0,0,0,0,
10,3940,3768.72,4021.03,3901.03,3962.05,4033.33,3880.51,3934.87,3986.67,3988.21,3956.41,3970.77,3894.36,3887.18,2046,2040,12.113,0,0,0,0,
11,3942.05,3775.38,4021.03,3903.59,3968.72,4036.41,3884.1,3940.51,3986.15,3982.05,3949.74,3965.64,3891.79,3891.79,2045,2044,12.121,0,0,0,0,
12,3937.95,3775.38,4018.97,3902.05,3961.54,4040.51,3887.69,3940.51,3984.62,3971.28,3936.41,3961.54,3872.82,3886.67,2043,2045,12.132,0,0,0,0,
13,3936.92,3772.31,4015.38,3901.03,3949.74,4033.85,3889.74,3936.92,3980.51,3973.85,3934.87,3963.59,3875.38,3886.15,2043,2042,12.136,0,0,0,0,
14,3942.05,3777.44,4020.51,3902.56,3956.92,4029.74,3894.36,3945.13,3985.64,3985.64,3944.62,3963.59,3891.79,3891.79,2043,2041,12.144,0,0,0,0,
15,3941.54,3783.08,4024.62,3903.59,3968.72,4035.38,3898.97,3951.28,3990.77,3984.62,3951.79,3966.15,3889.23,3895.38,2042,2039,12.156,0,0,0,0,
16,3940,3785.64,4027.69,3908.21,3964.62,4036.41,3895.9,3941.54,3986.15,3977.44,3950.26,3966.15,3879.49,3895.9,2043,2038,12.16,0,0,0,0,
17,3945.64,3792.82,4033.33,3910.77,3963.08,4030.77,3893.33,3941.54,3987.18,3978.97,3945.64,3964.62,3891.28,3900,2043,2037,12.174,0,0,0,0,
18,3942.56,3795.9,4026.67,3910.77,3957.44,4027.69,3892.31,3941.03,3989.74,3986.67,3943.08,3963.59,3902.05,3895.9,2045,2035,12.177,0,0,0,0,
19,3938.46,3792.82,4017.44,3907.69,3957.44,4027.18,3891.79,3930.77,3982.05,3992.82,3943.59,3966.15,3896.92,3892.82,2044,2034,12.185,0,0,0,0,
20,3945.13,3795.9,4028.72,3911.28,3968.21,4034.36,3891.28,3936.92,3977.44,3991.28,3949.74,3970.77,3899.49,3902.05,2046,2034,12.192,0,0,0,0,
21,3949.74,3800.51,4041.54,3918.97,3956.41,4035.9,3893.85,3955.38,3988.72,3993.33,3954.36,3978.97,3908.72,3910.77,2047,2038,12.199,0,0,0,0,
22,3949.74,3796.41,4036.92,3921.03,3950.77,4025.64,3901.54,3958.97,3995.9,4001.03,3956.41,3986.15,3909.74,3911.28,2046,2038,12.211,0,0,0,0,
23,3953.33,3802.56,4034.36,3922.05,3984.62,4029.74,3907.18,3957.44,3985.13,3995.38,3955.9,3981.54,3907.69,3912.82,2047,2038,12.215,0,0,0,0,
24,3948.72,3810.77,4036.41,3920,3984.62,4032.82,3898.97,3958.46,3973.85,3972.82,3949.74,3972.82,3902.56,3912.31,2048,2039,12.223,0,0,0,0,
25,3938.97,3803.59,4031.28,3912.82,3948.72,4023.08,3890.77,3958.97,3977.95,3973.33,3948.21,3971.79,3897.95,3904.1,2046,2039,12.232,0,0,0,0,
26,3947.18,3804.62,4032.82,3916.92,3957.95,4027.18,3901.54,3969.23,3989.23,3998.97,3959.49,3978.46,3908.72,3905.13,2046,2038,12.239,0,0,0,0,
27,3955.9,3820,4038.46,3930.26,3983.59,4038.46,3907.69,3971.28,3990.77,4010.26,3961.54,3980.51,3916.92,3915.38,2045,2037,12.247,0,0,0,0,
28,3950.77,3825.13,4034.87,3929.23,3982.05,4037.44,3901.54,3964.1,3989.23,4000.51,3951.79,3976.92,3915.38,3921.03,2046,2038,12.255,0,0,0,0,
29,3946.67,3821.54,4027.18,3921.54,3968.72,4033.85,3902.56,3961.54,3986.67,3981.03,3952.82,3973.33,3912.31,3913.33,2046,2037,12.263,0,0,0,0,
30,3948.72,3823.08,4029.74,3927.69,3957.95,4034.87,3910.26,3960.51,3980.51,3968.72,3963.08,3975.9,3910.26,3911.28,2045,2035,12.27,0,0,0,0,
31,3950.26,3826.67,4036.41,3931.28,3963.59,4034.36,3908.72,3967.18,3985.64,3986.15,3958.46,3980.51,3909.23,3920,2044,2036,12.278,0,0,0,0,
32,3950.26,3832.31,4036.92,3927.69,3977.44,4037.95,3908.72,3980.51,3993.33,4012.31,3948.21,3977.44,3914.87,3921.54,2043,2036,12.286,0,0,0,0,
33,3951.79,3837.95,4034.87,3927.69,3981.54,4040.51,3917.44,3985.64,3988.21,4008.21,3956.92,3972.82,3921.54,3914.87,2043,2036,12.294,0,0,0,0,
34,3950.77,3836.41,4032.31,3927.69,3980,4038.97,3917.95,3981.54,3987.18,3993.33,3960,3971.79,3917.95,3914.36,2043,2037,12.302,0,0,0,0,
35,3946.67,3830.26,4031.28,3925.64,3976.92,4035.38,3915.9,3981.03,3989.23,3989.23,3946.67,3972.82,3912.82,3913.33,2042,2038,12.31,0,0,0,0,
36,3946.67,3832.82,4035.9,3927.69,3962.05,4033.85,3924.1,3983.08,3989.23,3986.15,3954.87,3982.05,3917.44,3914.36,2041,2036,12.318,0,0,0,0,
37,3950.77,3839.49,4038.46,3933.33,3957.95,4035.38,3926.15,3988.21,3995.38,3994.36,3978.46,3989.23,3922.56,3921.03,2041,2034,12.326,0,0,0,0,
38,3957.95,3850.77,4043.08,3937.95,3976.92,4041.54,3924.1,3996.41,4001.03,4009.74,3982.05,3991.28,3926.15,3930.26,2041,2034,12.333,0,0,0,0,
39,3967.69,3861.54,4056.41,3943.08,3984.62,4045.13,3934.87,3994.36,3996.92,4020,3976.92,3997.95,3932.82,3936.41,2042,2034,12.341,0,0,0,0,
40,3969.74,3862.05,4057.44,3943.08,3965.64,4042.05,3938.46,3987.18,3993.85,4024.62,3978.97,3999.49,3936.41,3936.41,2042,2034,12.349,0,0,0,0,
41,3958.97,3855.38,4043.59,3939.49,3958.46,4037.95,3925.13,3981.03,3989.74,4001.54,3968.21,3988.21,3928.72,3932.82,2043,2035,12.357,0,0,0,0,
42,3957.95,3859.49,4039.49,3940.51,3982.56,4037.44,3921.03,3984.1,3983.59,3977.44,3955.9,3984.1,3924.1,3932.82,2046,2035,12.365,0,0,0,0,
43,3960.51,3867.18,4040,3942.05,3988.21,4032.31,3927.69,3989.23,3986.67,3993.33,3957.95,3985.13,3923.08,3927.69,2047,2037,12.383,0,0,0,0,
44,3956.41,3861.54,4037.44,3941.54,3963.59,4029.23,3929.23,3987.18,3989.74,4005.13,3961.54,3984.1,3918.46,3915.9,2048,2037,12.389,0,0,0,0,
45,3962.56,3866.15,4043.08,3943.59,3961.54,4036.92,3934.87,3987.69,3989.74,3995.9,3961.54,3984.62,3925.64,3924.1,2048,2038,12.397,0,0,0,0,
46,3973.33,3878.46,4048.21,3947.18,3982.05,4043.59,3948.21,3994.87,3993.33,4000.51,3962.56,3988.21,3938.97,3939.49,2048,2037,12.404,0,0,0,0,
47,3966.15,3873.33,4039.49,3944.1,3982.05,4044.62,3956.41,3997.95,4001.03,4004.62,3965.13,3991.28,3935.9,3934.87,2047,2035,12.412,0,0,0,0,
48,3953.85,3865.13,4028.72,3938.97,3964.62,4040.51,3949.23,3988.21,4003.08,3991.28,3963.59,3986.15,3926.15,3923.08,2046,2036,12.42,0,0,0,0,
49,3959.49,3873.85,4031.79,3944.62,3972.82,4040.51,3943.59,3978.97,3998.46,4002.56,3963.59,3980,3935.9,3925.13,2045,2038,12.428,0,0,0,0,
50,3972.31,3890.26,4045.13,3957.44,3998.46,4051.28,3953.85,3984.62,4002.05,4025.64,3975.38,3991.28,3951.28,3941.54,2044,2037,12.436,0,0,0,0,
51,3976.92,3897.95,4051.28,3962.05,4002.56,4055.38,3967.69,3994.87,4011.28,4018.97,3985.64,4007.69,3948.21,3952.31,2045,2038,12.447,0,0,0,0,
52,3969.74,3892.31,4044.1,3960,3986.67,4049.74,3968.21,3995.38,4008.21,4011.79,3979.49,4002.05,3940.51,3943.59,2044,2037,12.452,0,0,0,0,
53,3963.08,3887.69,4040.51,3957.95,3977.95,4045.13,3954.87,3985.64,3995.9,4016.92,3969.23,3990.77,3944.1,3934.36,2043,2037,12.46,0,0,0,0,
54,3965.13,3891.79,4042.56,3956.41,3975.9,4041.03,3947.69,3974.36,3989.23,4005.13,3967.69,3990.77,3941.03,3936.92,2044,2036,12.467,0,0,0,0,
55,3964.1,3887.18,4040,3953.33,3971.28,4033.85,3948.21,3969.23,3985.64,3993.85,3967.69,3990.26,3930.26,3925.64,2043,2034,12.476,0,0,0,0,
56,3961.03,3881.03,4037.95,3954.87,3969.23,4033.85,3948.72,3967.69,3984.1,3999.49,3960,3981.54,3927.18,3910.26,2043,2036,12.483,0,0,0,0,
57,3966.67,3890.77,4041.54,3957.95,3968.72,4036.92,3951.79,3966.15,3983.59,3994.36,3947.18,3975.9,3928.21,3922.05,2044,2036,12.491,0,0,0,0,
58,3971.79,3897.44,4047.18,3957.44,3980,4040,3961.03,3971.28,3986.67,3986.67,3942.56,3984.1,3928.72,3937.44,2044,2035,12.499,0,0,0,0,
59,3970.26,3897.44,4053.33,3959.49,3991.28,4047.69,3971.79,3982.05,3995.9,4002.56,3954.36,3996.92,3931.28,3938.97,2043,2036,12.507,0,0,0,0,
60,3975.38,3906.15,4060,3955.38,3977.95,4053.85,3976.41,3981.54,4000,4008.21,3959.49,4001.03,3932.82,3940.51,2042,2036,12.515,0,0,0,0,
61,3982.05,3911.79,4063.08,3944.1,3972.82,4054.87,3977.44,3979.49,3995.9,3998.46,3952.82,3998.97,3936.92,3946.15,2042,2034,12.536,0,0,0,0,
62,3977.44,3907.18,4060.51,3944.1,3996.41,4054.87,3977.44,3990.26,3993.33,4008.21,3957.44,3997.95,3943.08,3945.13,2042,2034,12.539,0,0,0,0,
63,3978.97,3913.85,4063.59,3958.97,4012.82,4060.51,3984.1,4002.56,3999.49,4022.56,3970.77,4003.59,3943.08,3947.69,2044,2037,12.546,0,0,0,0,
64,3991.28,3927.69,4068.21,3963.59,4006.15,4065.64,3991.28,4007.18,4003.08,4019.49,3972.82,4010.77,3945.13,3958.97,2044,2038,12.554,0,0,0,0,
65,3986.67,3921.54,4057.44,3958.46,3995.38,4061.54,3986.15,4000.51,3995.9,4005.64,3965.64,4004.62,3947.18,3953.33,2044,2039,12.563,0,0,0,0,
66,3973.85,3913.33,4046.67,3955.38,3996.41,4055.38,3978.46,4000,3994.36,3994.87,3964.1,3998.97,3944.62,3940,2043,2038,12.584,0,0,0,0,
67,3985.13,3927.18,4060,3957.44,3998.97,4056.41,3985.13,4013.85,4005.13,4005.64,3969.23,4010.26,3949.23,3952.82,2045,2040,12.586,0,0,0,0,
68,3997.95,3939.49,4073.33,3967.69,3998.97,4062.56,3994.87,4019.49,4010.26,4028.21,3972.82,4017.44,3953.33,3966.67,2045,2039,12.594,0,0,0,0,
69,3988.21,3934.36,4063.59,3967.69,3995.38,4063.59,3991.28,4015.38,4005.64,4033.85,3967.69,4009.74,3949.23,3954.87,2045,2039,12.601,0,0,0,0,
70,3986.15,3936.41,4057.95,3957.44,3986.15,4061.54,3989.23,4021.54,4007.69,4023.59,3966.67,4012.31,3951.28,3955.9,2044,2039,12.61,0,0,0,0,
71,3992.82,3937.95,4061.54,3958.97,3986.67,4059.49,3992.82,4027.69,4009.23,4023.59,3975.9,4017.95,3954.36,3965.13,2045,2039,12.619,0,0,0,0,
72,3991.28,3928.21,4060,3964.62,4009.74,4064.1,3996.92,4023.08,4005.13,4032.82,3976.41,4014.36,3949.23,3958.46,2044,2038,12.625,0,0,0,0,
73,3991.79,3930.26,4060.51,3960,4018.97,4067.18,4003.08,4020.51,4002.56,4021.54,3964.1,4011.28,3949.23,3958.46,2044,2035,12.633,0,0,0,0,
74,3990.77,3936.92,4063.08,3957.95,3988.21,4059.49,4003.08,4017.44,4003.08,4007.18,3958.97,4010.26,3950.77,3965.64,2044,2033,12.641,0,0,0,0,
75,3992.31,3942.56,4063.08,3965.64,3988.72,4058.46,4002.05,4014.87,4003.59,4021.54,3970.26,4015.9,3957.95,3965.64,2043,2035,12.649,0,0,0,0,
76,4009.74,3955.38,4073.85,3975.9,4028.21,4070.77,4012.31,4023.08,4006.15,4045.64,3987.69,4030.26,3972.31,3977.44,2043,2035,12.657,0,0,0,0,
77,4012.82,3952.31,4081.54,3974.87,4023.08,4066.67,4012.82,4033.85,4006.15,4039.49,3989.74,4030.77,3970.26,3985.13,2044,2037,12.664,0,0,0,0,
78,3995.38,3938.46,4068.21,3965.64,3994.87,4054.36,3997.95,4032.31,4000.51,4024.62,3978.97,4019.49,3958.46,3968.72,2044,2038,12.672,0,0,0,0,
79,3991.79,3941.54,4059.49,3965.13,4004.62,4058.97,3997.44,4023.59,4001.03,4029.74,3973.33,4016.92,3960,3955.38,2044,2038,12.68,0,0,0,0,
80,3996.92,3946.15,4060.51,3970.77,4006.67,4059.49,4006.15,4018.97,4005.13,4027.18,3973.33,4018.46,3961.54,3958.46,2045,2036,12.689,0,0,0,0,
81,3989.23,3932.82,4050.26,3964.62,3975.38,4045.13,3997.95,4010.26,3997.95,4008.72,3965.13,4012.31,3952.82,3957.95,2046,2035,12.696,0,0,0,0,
82,3975.38,3926.15,4040,3958.46,3970.26,4040.51,3984.62,4002.05,3986.15,4000.51,3951.28,4001.54,3944.62,3949.74,2046,2035,12.704,0,0,0,0,
83,3974.36,3937.44,4042.56,3960.51,3989.23,4046.67,3987.69,4013.85,3986.67,4010.77,3945.13,3996.41,3944.62,3943.59,2045,2036,12.712,0,0,0,0,
84,3982.56,3947.69,4043.08,3960.51,3996.92,4053.33,3998.97,4030.26,3993.85,4024.1,3950.77,4000,3954.36,3947.69,2046,2036,12.72,0,0,0,0,
85,3987.69,3952.82,4045.13,3963.59,3999.49,4060,4006.67,4032.82,3997.44,4026.15,3960.51,4007.69,3962.05,3954.87,2047,2038,12.728,0,0,0,0,
86,3989.74,3953.85,4053.85,3973.85,3998.46,4059.49,4010.26,4035.38,3997.95,4015.9,3960,4012.82,3961.03,3958.46,2047,2037,12.735,0,0,0,0,
87,3997.95,3956.92,4062.56,3978.46,4006.15,4059.49,4015.9,4050.77,4000,4016.41,3960.51,4013.85,3963.59,3970.26,2046,2038,12.743,0,0,0,0,
88,4006.15,3965.13,4065.13,3980,4020.51,4063.59,4021.03,4061.54,4005.64,4022.05,3968.72,4016.92,3962.56,3976.92,2047,2037,12.751,0,0,0,0,
89,4007.69,3976.41,4063.59,3985.64,4016.92,4062.05,4019.49,4055.38,4010.77,4018.46,3973.85,4025.13,3960.51,3971.79,2046,2038,12.759,0,0,0,0,
90,4005.64,3976.41,4065.13,3992.82,3998.46,4058.97,4018.46,4044.62,4009.23,4024.1,3968.72,4026.15,3965.64,3970.26,2046,2039,12.768,0,0,0,0,
91,4000.51,3966.15,4067.69,3992.82,3990.77,4061.54,4018.46,4036.41,4004.62,4042.05,3964.62,4014.87,3968.72,3969.74,2046,2040,12.775,0,0,0,0,
92,4000.51,3966.15,4063.08,3985.13,3996.92,4060,4016.92,4032.31,4003.08,4041.03,3964.62,4007.18,3963.59,3964.62,2046,2040,12.783,0,0,0,0,
93,4002.05,3969.74,4057.95,3977.44,4013.85,4058.46,4020,4036.92,4003.59,4017.44,3964.1,4011.79,3962.05,3962.56,2046,2040,12.791,0,0,0,0,
94,4001.03,3966.15,4062.05,3975.38,4024.1,4063.08,4026.67,4048.72,4007.18,4013.33,3965.64,4012.82,3964.1,3964.1,2046,2040,12.799,0,0,0,0,
95,4005.64,3967.69,4067.18,3979.49,4018.46,4064.1,4027.18,4051.79,4012.82,4029.23,3969.23,4012.31,3965.64,3965.13,2046,2041,12.806,0,0,0,0,
96,4010.26,3976.41,4068.21,3987.18,4003.08,4059.49,4022.05,4041.54,4008.21,4030.77,3968.72,4012.82,3964.62,3969.23,2045,2039,12.814,0,0,0,0,
97,4009.74,3977.95,4072.31,3990.26,3991.79,4054.87,4017.95,4033.85,4001.54,4025.13,3963.59,4012.31,3967.18,3973.33,2045,2039,12.823,0,0,0,0,
98,4014.87,3984.1,4081.54,3988.72,4006.15,4062.05,4022.56,4037.95,4011.28,4027.69,3967.69,4016.41,3973.33,3981.54,2043,2039,12.83,0,0,0,0,
99,4019.49,3999.49,4090.77,3990.77,4024.62,4071.79,4027.69,4037.95,4020,4030.77,3982.05,4023.59,3973.85,3988.72,2043,2036,12.838,0,0,0,0,
100,4016.41,4006.67,4091.28,3991.28,4021.54,4069.74,4023.59,4031.28,4012.31,4035.9,3986.67,4021.03,3978.46,3982.05,2043,2036,12.846,0,0,0,0,
101,4017.95,4002.56,4088.21,3990.26,4020.51,4064.1,4022.56,4032.82,4011.79,4053.85,3984.62,4014.87,3990.77,3980.51,2044,2035,12.854,0,0,0,0,
102,4021.03,3995.9,4082.56,3993.85,4014.36,4062.56,4026.15,4038.46,4019.49,4054.87,3981.03,4014.87,3986.67,3989.23,2045,2035,12.861,0,0,0,0,
103,4013.33,3988.72,4075.38,3994.36,3993.85,4058.97,4021.03,4033.33,4015.9,4033.85,3972.82,4008.21,3973.33,3983.59,2045,2034,12.869,0,0,0,0,
104,4004.62,3989.23,4070.77,3990.77,4005.13,4060.51,4016.92,4025.64,4013.33,4029.23,3972.82,4004.62,3976.92,3975.9,2045,2035,12.877,0,0,0,0,
105,4007.18,3994.87,4072.82,3992.82,4028.72,4062.56,4021.03,4029.23,4015.9,4036.41,3983.59,4012.82,3983.59,3987.18,2046,2036,12.885,0,0,0,0,
106,4015.9,3997.95,4077.95,3993.85,4010.26,4054.87,4024.62,4042.05,4019.49,4044.62,3985.64,4020.51,3978.46,3998.97,2046,2038,12.893,0,0,0,0,
107,4013.33,3994.87,4073.33,3988.21,3979.49,4050.26,4021.54,4044.62,4021.03,4050.77,3977.44,4012.82,3975.9,3988.72,2048,2040,12.901,0,0,0,0,
108,4004.62,3990.77,4067.69,3987.18,3982.56,4054.87,4018.46,4035.38,4014.87,4044.62,3975.9,4004.1,3980,3979.49,2049,2040,12.909,0,0,0,0,
109,4008.72,3994.87,4071.79,3996.41,4005.64,4058.46,4025.13,4041.03,4012.31,4039.49,3982.56,4010.77,3983.08,3985.64,2048,2040,12.917,0,0,0,0,
110,4020,4005.64,4080.51,4003.08,4013.33,4061.03,4033.33,4057.44,4021.54,4044.1,3987.69,4024.62,3985.13,3994.87,2048,2042,12.925,0,0,0,0,
111,4015.9,4007.69,4077.44,3994.36,4004.62,4057.95,4025.13,4050.26,4022.56,4038.46,3978.97,4020,3979.49,3986.67,2047,2044,12.932,0,0,0,0,
112,4007.18,4002.05,4071.79,3993.85,4001.03,4054.87,4025.64,4038.97,4015.9,4034.36,3971.28,4006.67,3974.36,3972.31,2047,2044,12.94,0,0,0,0,
113,4014.36,4011.79,4083.08,4009.74,4006.15,4061.54,4042.05,4048.21,4020.51,4052.82,3982.56,4014.87,3986.67,3985.13,2047,2043,12.948,0,0,0,0,
114,4022.56,4027.69,4090.77,4013.33,4009.74,4067.18,4042.05,4054.36,4027.18,4059.49,3990.77,4025.13,3997.95,4002.05,2045,2042,12.956,0,0,0,0,
115,4012.82,4018.97,4073.33,4002.56,4006.15,4063.59,4029.23,4046.15,4023.59,4044.1,3980,4011.28,3987.18,3985.64,2046,2039,12.964,0,0,0,0,
116,4013.33,4007.18,4072.82,4006.15,4007.69,4064.1,4038.46,4048.21,4027.18,4056.41,3980.51,4011.79,3989.74,3976.92,2046,2040,12.972,0,0,0,0,
117,4030.26,4018.46,4098.46,4014.87,4021.54,4070.26,4057.44,4063.59,4040,4072.31,3993.85,4037.44,4005.64,4005.64,2045,2038,12.98,0,0,0,0,
118,4021.54,4024.1,4086.67,4005.64,4017.44,4061.03,4045.64,4057.44,4035.9,4050.77,3989.74,4032.31,3994.87,4009.23,2045,2041,12.988,0,0,0,0,
119,4003.59,4017.44,4063.08,3999.49,3985.13,4044.62,4026.67,4039.49,4020,4032.82,3982.05,4009.23,3982.56,3989.23,2044,2042,12.995,0,0,0,0,
120,4013.85,4018.46,4081.03,4011.79,3977.95,4048.21,4035.38,4045.64,4016.41,4042.56,3983.08,4012.31,3992.82,3991.28,2044,2041,13.003,0,0,0,0,
121,4018.97,4020,4089.23,4017.44,4004.62,4058.97,4045.13,4063.08,4021.03,4056.92,3982.56,4018.97,3994.36,3992.82,2045,2039,13.011,0,0,0,0,
122,4003.59,4013.85,4064.1,4009.23,4008.21,4051.28,4036.41,4068.72,4018.46,4053.85,3976.92,4010.77,3980,3977.95,2046,2038,13.02,0,0,0,0,
123,4001.03,4012.82,4053.85,4004.62,3992.82,4041.54,4030.26,4067.18,4012.82,4034.36,3970.77,4002.56,3975.9,3970.77,2045,2039,13.027,0,0,0,0,
124,4011.28,4020,4066.15,4013.85,3991.79,4051.79,4036.41,4069.74,4010.77,4026.15,3969.74,4003.08,3986.15,3978.97,2045,2040,13.035,0,0,0,0,
125,4020,4037.95,4077.95,4025.13,4007.69,4065.13,4045.64,4076.92,4017.95,4042.05,3980,4015.38,4001.54,3997.95,2047,2041,13.043,0,0,0,0,
126,4022.05,4051.79,4080,4030.77,4012.31,4060,4045.13,4077.95,4023.08,4047.69,3987.18,4022.56,4006.15,4010.26,2048,2042,13.051,0,0,0,0,
127,4010.77,4043.08,4069.23,4026.15,3993.85,4044.1,4028.72,4067.18,4012.82,4041.54,3978.46,4009.74,3996.41,3997.44,2048,2043,13.059,0,0,0,0,
128,4011.79,4040,4070.77,4028.21,3989.23,4041.03,4028.21,4068.21,4011.28,4044.62,3977.95,4008.21,3996.92,3993.85,2047,2043,13.066,0,0,0,0,
0,4028.72,4054.87,4088.72,4042.56,3995.38,4050.77,4049.23,4092.82,4025.13,4041.54,3995.38,4030.26,4009.23,4008.21,2047,2042,13.075,0,0,0,0,
1,4028.21,4061.54,4086.15,4042.05,3995.38,4052.82,4052.82,4100.51,4030.26,4042.56,3996.92,4030.26,4010.26,4008.72,2047,2039,13.082,0,0,0,0,
2,4014.87,4054.36,4068.72,4031.28,4007.18,4046.15,4040.51,4078.97,4020,4056.41,3983.59,4012.82,4005.13,4004.62,2046,2039,13.09,0,0,0,0,
3,4011.79,4048.21,4064.62,4031.28,4010.26,4040.51,4036.41,4063.08,4012.82,4050.26,3980.51,4010.77,4006.67,4005.64,2045,2039,13.098,0,0,0,0,
4,4011.28,4048.21,4068.72,4036.92,3991.28,4040,4042.05,4069.23,4013.85,4029.74,3981.54,4016.41,4006.67,4001.03,2046,2040,13.106,0,0,0,0,
5,4003.59,4045.64,4063.08,4035.9,3982.56,4037.44,4045.64,4074.87,4014.36,4020.51,3973.33,4009.23,3994.36,3990.26,2045,2036,13.114,0,0,0,0,
6,4002.05,4041.54,4054.87,4034.36,3981.03,4032.82,4043.08,4070.77,4014.87,4015.9,3966.15,4003.08,3983.59,3984.62,2045,2036,13.121,0,0,0,0,
7,4009.74,4048.72,4060.51,4038.97,3978.97,4035.9,4043.08,4077.95,4018.97,4023.08,3971.28,4007.69,3991.79,3987.18,2045,2036,13.129,0,0,0,0,
8,4015.38,4060,4066.15,4044.1,3992.82,4042.56,4048.21,4083.59,4024.1,4039.49,3980,4012.82,4006.15,3995.38,2044,2034,13.137,0,0,0,0,
9,4017.95,4064.1,4071.28,4044.62,4001.54,4042.05,4050.26,4081.03,4027.69,4044.62,3986.67,4018.97,4011.79,4009.23,2045,2032,13.145,0,0,0,0,
10,4022.56,4066.67,4080.51,4044.1,3991.79,4041.03,4052.31,4087.69,4032.31,4049.74,3993.85,4025.64,4014.87,4018.46,2045,2034,13.154,0,0,0,0,
11,4026.67,4072.31,4083.59,4046.15,3991.28,4042.56,4057.95,4094.87,4037.44,4056.92,4002.56,4032.82,4016.92,4019.49,2045,2034,13.161,0,0,0,0,
12,4027.69,4070.77,4080,4049.74,3995.9,4041.54,4054.36,4084.62,4034.87,4045.13,4003.08,4035.9,4007.18,4017.95,2045,2033,13.169,0,0,0,0,
13,4024.1,4065.13,4078.46,4049.74,3993.33,4041.54,4043.08,4072.82,4025.64,4031.79,3994.36,4029.23,3996.41,4015.9,2044,2034,13.177,0,0,0,0,
14,4017.44,4062.05,4077.44,4044.62,3994.36,4042.56,4040,4079.49,4024.1,4045.13,3994.87,4022.56,3995.9,4005.13,2045,2035,13.19,0,0,0,0,
15,4023.08,4063.08,4077.95,4045.64,4003.59,4045.64,4047.18,4088.72,4028.72,4063.08,4001.03,4028.21,4001.54,4004.62,2045,2035,13.203,0,0,0,0,
16,4035.38,4068.72,4082.56,4052.31,4003.08,4048.72,4050.77,4085.13,4026.15,4060.51,3997.44,4032.31,4006.15,4016.41,2044,2037,13.203,0,0,0,0,
17,4028.21,4067.18,4075.9,4050.26,3989.74,4045.13,4047.18,4075.9,4019.49,4036.41,3986.67,4024.62,4000,4012.82,2044,2036,13.209,0,0,0,0,
18,4015.9,4058.46,4069.23,4046.67,3995.38,4044.62,4045.13,4074.36,4017.95,4019.49,3980,4018.46,3988.72,3998.97,2043,2038,13.216,0,0,0,0,
19,4023.59,4057.95,4074.87,4051.28,4012.82,4053.85,4048.72,4075.9,4019.49,4036.92,3984.1,4018.97,3988.21,3996.41,2043,2036,13.224,0,0,0,0,
20,4035.9,4066.67,4080,4057.44,4013.85,4055.38,4051.28,4072.82,4023.08,4052.82,3989.74,4023.08,3996.41,4002.56,2043,2039,13.232,0,0,0,0,
21,4040,4074.87,4088.72,4062.56,4018.97,4050.26,4052.82,4070.77,4026.67,4036.92,3985.64,4034.36,3996.92,4012.31,2043,2040,13.24,0,0,0,0,
22,4037.44,4073.33,4089.74,4061.54,4022.56,4050.26,4048.72,4064.62,4024.1,4030.77,3969.74,4036.92,3992.31,4010.77,2044,2037,13.248,0,0,0,0,
23,4028.21,4062.56,4073.85,4052.31,4010.26,4046.67,4041.03,4054.36,4020,4039.49,3962.56,4023.08,3986.67,3996.41,2042,2036,13.256,0,0,0,0,
24,4027.18,4057.44,4067.69,4050.26,4012.31,4047.69,4047.69,4057.44,4026.15,4033.33,3970.77,4020,3989.74,3997.95,2042,2036,13.263,0,0,0,0,
25,4033.33,4064.1,4074.87,4056.92,4014.36,4053.33,4058.46,4063.08,4032.31,4033.33,3968.21,4026.67,3996.92,4009.74,2044,2034,13.271,0,0,0,0,
26,4029.74,4064.1,4071.79,4055.38,4005.64,4053.33,4053.85,4052.82,4025.64,4045.64,3953.33,4022.05,3986.15,4004.1,2044,2034,13.279,0,0,0,0,
27,4024.1,4058.97,4068.72,4051.79,4018.97,4053.33,4051.28,4050.77,4020.51,4043.08,3956.41,4020,3980.51,3995.38,2045,2035,13.293,0,0,0,0,
28,4037.44,4068.72,4083.08,4058.97,4025.13,4057.44,4063.08,4069.74,4033.33,4038.46,3974.36,4036.41,3997.44,4008.72,2045,2037,13.298,0,0,0,0,
29,4048.21,4075.38,4091.79,4064.62,4005.13,4056.92,4061.03,4077.44,4040.51,4043.08,3980.51,4047.69,4010.26,4023.59,2045,2040,13.305,0,0,0,0,
30,4040.51,4066.67,4083.59,4060,4008.21,4055.38,4052.31,4072.31,4034.36,4054.87,3981.54,4045.64,4008.72,4020,2047,2040,13.311,0,0,0,0,
31,4036.92,4063.08,4076.41,4057.95,4020,4051.28,4055.9,4073.33,4033.33,4065.64,3985.13,4042.05,4004.1,4014.87,2047,2040,13.318,0,0,0,0,
32,4042.56,4066.67,4075.38,4058.46,4008.72,4038.97,4051.79,4067.69,4033.85,4057.44,3982.56,4041.54,4001.03,4020,2046,2039,13.326,0,0,0,0,
33,4044.62,4066.15,4081.03,4061.54,4007.18,4035.9,4045.13,4052.82,4031.79,4041.54,3983.59,4047.18,3997.95,4025.64,2045,2038,13.334,0,0,0,0,
34,4047.69,4071.28,4092.31,4073.85,4017.44,4049.23,4062.56,4055.9,4038.97,4044.62,3996.41,4055.9,3998.46,4033.85,2045,2037,13.342,0,0,0,0,
35,4046.67,4077.44,4093.33,4077.44,4009.74,4053.33,4068.72,4061.54,4042.05,4051.28,3993.85,4051.28,4000,4036.41,2045,2036,13.351,0,0,0,0,
36,4038.46,4072.82,4078.97,4065.13,4014.87,4049.74,4050.26,4047.69,4030.26,4056.41,3978.97,4040,4005.64,4026.15,2044,2036,13.359,0,0,0,0,
37,4041.54,4073.85,4080.51,4066.67,4027.69,4053.33,4056.41,4041.03,4027.69,4062.56,3980,4041.54,4006.15,4023.59,2044,2035,13.367,0,0,0,0,
38,4051.79,4077.95,4095.9,4081.03,4008.21,4054.36,4075.9,4053.33,4031.79,4046.67,3989.74,4048.72,4003.59,4030.77,2044,2035,13.374,0,0,0,0,
39,4045.13,4071.28,4090.77,4077.95,4003.59,4050.77,4064.62,4051.79,4027.69,4031.28,3986.67,4042.56,4004.62,4023.59,2043,2037,13.382,0,0,0,0,
40,4035.38,4063.59,4075.9,4065.13,4029.74,4054.36,4050.77,4040,4026.15,4042.56,3979.49,4033.33,3994.36,4008.72,2044,2037,13.389,0,0,0,0,
41,4036.92,4066.67,4075.9,4066.15,4030.26,4060,4065.13,4046.67,4030.77,4043.59,3976.41,4036.92,3982.56,4009.23,2043,2038,13.397,0,0,0,0,
42,4033.33,4067.69,4080,4066.67,4011.79,4055.9,4074.36,4052.31,4030.26,4027.69,3973.33,4037.95,3989.23,4011.79,2043,2037,13.406,0,0,0,0,
43,4031.28,4063.59,4078.46,4058.97,4011.79,4052.82,4064.62,4044.62,4026.67,4036.41,3976.92,4031.28,3997.44,4010.77,2043,2038,13.413,0,0,0,0,
44,4038.46,4063.59,4075.9,4058.97,4008.72,4049.23,4057.95,4041.03,4028.21,4050.77,3984.1,4031.79,3996.92,4013.85,2043,2040,13.421,0,0,0,0,
45,4041.03,4067.69,4076.92,4070.26,3997.44,4042.56,4064.62,4044.1,4030.77,4041.54,3989.23,4040.51,4004.62,4020.51,2044,2040,13.429,0,0,0,0,
46,4037.44,4065.13,4082.05,4075.9,4009.74,4047.69,4069.23,4037.44,4029.74,4033.85,3990.26,4042.05,4005.64,4025.13,2044,2039,13.437,0,0,0,0,
47,4041.03,4065.13,4087.18,4067.69,4028.72,4058.46,4066.67,4037.95,4030.26,4040.51,3992.82,4042.56,3998.46,4028.21,2046,2036,13.448,0,0,0,0,
48,4045.64,4073.85,4088.72,4064.1,4019.49,4052.31,4063.08,4050.26,4030.26,4042.05,3994.36,4047.18,4001.03,4033.33,2047,2035,13.452,0,0,0,0,
49,4039.49,4075.9,4085.13,4068.72,4005.13,4042.56,4056.92,4045.64,4023.08,4037.44,3984.62,4041.54,4005.13,4032.31,2047,2029,13.46,0,0,0,0,
50,4042.05,4079.49,4083.59,4074.36,4015.9,4051.28,4057.44,4031.79,4023.08,4049.74,3985.64,4032.82,4004.62,4028.21,2047,2030,13.469,0,0,0,0,
51,4059.49,4096.41,4091.79,4077.95,4033.85,4064.62,4070.26,4038.97,4035.38,4060.51,4009.23,4045.13,4016.41,4035.9,2047,2032,13.476,0,0,0,0,
52,4066.67,4101.03,4101.03,4083.08,4036.41,4063.08,4080,4057.44,4042.56,4049.74,4020.51,4063.59,4031.79,4046.15,2047,2034,13.484,0,0,0,0,
53,4058.46,4090.77,4097.95,4081.03,4033.85,4058.97,4076.92,4060,4040,4047.69,4008.21,4061.03,4028.21,4044.1,2046,2034,13.492,0,0,0,0,
54,4053.33,4090.26,4086.67,4071.79,4038.46,4060,4069.74,4052.31,4037.95,4069.23,4006.15,4046.67,4018.97,4034.87,2047,2035,13.5,0,0,0,0,
55,4060.51,4105.64,4091.79,4079.49,4044.1,4070.26,4082.05,4059.49,4046.15,4076.41,4017.95,4056.41,4027.18,4044.1,2047,2036,13.507,0,0,0,0,
56,4064.62,4110.26,4100.51,4091.79,4037.44,4075.38,4094.87,4073.85,4053.33,4060,4018.46,4070.26,4033.85,4055.38,2047,2037,13.515,0,0,0,0,
57,4057.95,4097.95,4095.38,4085.64,4029.74,4067.69,4084.1,4074.36,4047.18,4064.62,4015.9,4055.9,4026.67,4045.64,2046,2038,13.53,0,0,0,0,
58,4051.79,4091.28,4091.28,4079.49,4044.62,4068.72,4072.82,4065.64,4040,4083.08,4017.95,4038.97,4023.59,4035.9,2047,2041,13.531,0,0,0,0,
59,4057.95,4101.03,4100,4089.74,4051.28,4074.87,4078.46,4066.15,4040,4070.26,4022.56,4050.26,4030.26,4041.54,2046,2043,13.539,0,0,0,0,
60,4071.28,4109.23,4107.69,4095.9,4032.82,4064.1,4083.08,4068.21,4038.46,4050.26,4023.08,4063.59,4028.72,4047.69,2045,2044,13.547,0,0,0,0,
61,4066.67,4097.44,4096.41,4085.64,4037.95,4056.92,4073.85,4060.51,4036.41,4060.51,4014.87,4047.69,4022.05,4041.54,2047,2044,13.556,0,0,0,0,
62,4049.74,4089.23,4081.54,4078.97,4063.59,4067.18,4063.08,4055.38,4040,4067.69,4008.21,4035.9,4022.56,4034.87,2048,2043,13.563,0,0,0,0,
63,4060,4110.26,4095.9,4094.87,4065.13,4076.92,4075.9,4074.36,4048.21,4051.28,4018.97,4066.15,4033.85,4047.69,2047,2043,13.577,0,0,0,0,
64,4083.59,4125.13,4120.51,4105.13,4040.51,4079.49,4097.95,4096.92,4055.9,4055.38,4030.77,4086.15,4044.62,4066.15,2047,2042,13.58,0,0,0,0,
65,4071.79,4109.74,4105.13,4090.77,4034.87,4076.92,4082.05,4087.18,4050.26,4078.97,4021.03,4052.31,4038.46,4053.33,2046,2041,13.586,0,0,0,0,
66,4053.85,4102.56,4082.56,4081.03,4060.51,4074.87,4062.05,4070.77,4040,4083.08,4022.56,4034.36,4031.28,4035.9,2047,2040,13.594,0,0,0,0,
67,4072.82,4108.72,4105.13,4087.18,4058.97,4075.9,4085.64,4083.08,4045.64,4064.62,4037.95,4069.74,4040.51,4056.92,2045,2039,13.602,0,0,0,0,
68,4086.15,4104.1,4120.51,4088.21,4034.87,4076.41,4096.41,4090.77,4051.79,4053.85,4028.21,4080.51,4044.1,4070.77,2044,2039,13.61,0,0,0,0,
69,4065.64,4107.69,4090.26,4087.69,4044.1,4077.95,4073.33,4074.87,4043.59,4056.92,4008.21,4042.56,4034.87,4049.23,2043,2039,13.619,0,0,0,0,
70,4050.26,4115.9,4069.23,4089.74,4046.15,4077.95,4067.18,4067.69,4036.92,4055.9,4007.18,4017.95,4035.38,4035.9,2043,2037,13.628,0,0,0,0,
71,4060.51,4113.33,4084.62,4089.74,4022.56,4074.87,4079.49,4077.95,4039.49,4054.36,4018.97,4031.79,4043.59,4047.69,2043,2036,13.634,0,0,0,0,
72,4072.31,4118.97,4095.38,4096.92,4045.64,4081.54,4080,4082.05,4042.56,4060,4023.08,4046.67,4047.18,4054.87,2045,2034,13.642,0,0,0,0,
73,4065.64,4123.59,4086.15,4104.1,4077.44,4083.59,4069.23,4075.9,4038.97,4059.49,4021.03,4036.92,4044.62,4046.67,2045,2035,13.649,0,0,0,0,
74,4075.9,4124.1,4106.15,4109.74,4050.26,4081.54,4090.77,4096.92,4052.31,4080,4039.49,4057.95,4058.46,4064.62,2045,2036,13.666,0,0,0,0,
75,4096.41,4135.38,4131.79,4118.46,4038.97,4091.28,4118.97,4122.05,4067.69,4098.97,4057.95,4087.69,4076.41,4091.28,2045,2035,13.67,0,0,0,0,
76,4074.36,4127.69,4102.05,4110.26,4050.77,4084.1,4091.28,4094.87,4048.21,4062.05,4031.79,4060.51,4056.41,4071.28,2044,2035,13.673,0,0,0,0,
77,4043.08,4100,4072.82,4088.72,4028.21,4062.56,4061.03,4066.15,4032.82,4039.49,4007.69,4030.77,4029.74,4042.05,2044,2037,13.682,0,0,0,0,
78,4053.85,4105.13,4090.77,4094.36,4024.1,4070.26,4084.62,4083.08,4046.67,4066.15,4029.23,4051.28,4040.51,4054.36,2046,2038,13.689,0,0,0,0,
79,4070.26,4128.21,4105.64,4115.38,4049.23,4086.15,4098.46,4096.41,4052.31,4080,4042.05,4062.05,4052.31,4063.59,2046,2038,13.697,0,0,0,0,
80,4061.03,4125.64,4095.9,4114.36,4039.49,4074.36,4075.38,4081.03,4041.54,4064.1,4027.18,4043.59,4038.46,4051.28,2046,2038,13.705,0,0,0,0,
81,4054.87,4116.41,4091.28,4107.69,4013.85,4065.13,4067.69,4074.36,4037.95,4046.67,4021.03,4038.97,4032.82,4050.77,2046,2038,13.713,0,0,0,0,
82,4065.13,4126.67,4095.9,4121.54,4024.62,4074.87,4081.54,4077.44,4039.49,4050.77,4025.13,4043.59,4045.64,4061.54,2047,2038,13.724,0,0,0,0,
83,4075.9,4138.46,4108.72,4137.95,4039.49,4078.97,4088.72,4080,4046.15,4076.92,4030.77,4051.28,4056.41,4073.33,2046,2035,13.728,0,0,0,0,
84,4076.92,4138.46,4116.92,4140,4028.72,4076.92,4089.74,4085.64,4054.36,4082.05,4043.08,4060.51,4058.97,4079.49,2044,2034,13.737,0,0,0,0,
85,4074.87,4137.95,4107.69,4137.44,4036.41,4080.51,4088.72,4090.77,4054.87,4061.54,4050.26,4062.56,4051.79,4073.85,2045,2036,13.745,0,0,0,0,
86,4078.46,4141.03,4109.74,4135.38,4059.49,4085.64,4090.77,4091.79,4057.44,4074.87,4047.18,4063.59,4050.26,4065.64,2046,2037,13.752,0,0,0,0,
87,4083.59,4146.67,4122.05,4131.28,4059.49,4084.62,4101.03,4096.41,4066.15,4096.41,4047.69,4068.21,4064.62,4073.85,2045,2036,13.761,0,0,0,0,
88,4078.97,4137.44,4113.85,4127.69,4035.38,4077.95,4098.97,4100.51,4063.08,4083.59,4050.77,4071.28,4063.59,4075.38,2045,2036,13.768,0,0,0,0,
89,4063.08,4111.28,4093.85,4122.56,4017.95,4067.69,4077.95,4093.85,4048.72,4067.69,4035.38,4065.13,4038.97,4058.46,2045,2035,13.776,0,0,0,0,
90,4055.9,4102.56,4088.21,4121.03,4025.13,4062.56,4073.85,4089.74,4042.05,4068.21,4018.46,4051.28,4028.72,4052.82,2044,2036,13.783,0,0,0,0,
91,4068.21,4120.51,4097.95,4123.08,4047.18,4073.33,4091.28,4093.33,4047.18,4070.26,4034.87,4048.72,4042.56,4065.64,2045,2035,13.791,0,0,0,0,
92,4074.36,4128.21,4103.59,4122.05,4053.33,4077.44,4092.31,4088.72,4049.23,4064.62,4052.31,4056.41,4045.13,4065.64,2046,2036,13.8,0,0,0,0,
93,4067.69,4117.95,4102.05,4118.46,4034.87,4071.28,4083.59,4086.15,4046.67,4067.69,4045.13,4056.41,4032.82,4057.44,2046,2037,13.807,0,0,0,0,
94,4072.31,4118.46,4106.67,4117.95,4036.41,4078.97,4088.21,4097.95,4049.74,4078.46,4051.79,4058.97,4040,4071.28,2044,2038,13.818,0,0,0,0,
95,4087.69,4130.77,4118.97,4124.1,4040,4088.21,4098.46,4108.72,4054.87,4082.05,4073.33,4073.85,4056.92,4087.69,2045,2038,13.823,0,0,0,0,
96,4097.44,4139.49,4127.18,4132.31,4035.9,4086.15,4102.56,4110.26,4056.92,4078.97,4071.79,4079.49,4059.49,4089.23,2047,2034,13.831,0,0,0,0,
97,4096.92,4136.41,4127.69,4130.77,4058.46,4085.13,4098.97,4104.1,4053.85,4080,4056.92,4077.44,4052.31,4088.72,2047,2035,13.839,0,0,0,0,
98,4087.69,4128.21,4118.46,4118.46,4070.26,4083.08,4089.74,4090.77,4051.79,4085.13,4051.79,4077.95,4050.26,4085.64,2047,2036,13.853,0,0,0,0,
99,4078.97,4125.13,4109.23,4115.38,4048.72,4076.92,4087.18,4082.05,4050.77,4074.36,4054.36,4070.77,4049.74,4074.87,2047,2036,13.857,0,0,0,0,
100,4076.92,4129.74,4107.18,4118.97,4040,4077.44,4084.1,4083.59,4046.67,4060.51,4053.33,4057.95,4045.64,4067.69,2047,2038,13.862,0,0,0,0,
101,4073.85,4130.77,4100.51,4114.87,4049.23,4078.97,4077.44,4083.59,4041.03,4066.15,4046.67,4047.69,4041.03,4062.05,2047,2037,13.87,0,0,0,0,
102,4072.31,4128.21,4092.82,4115.38,4049.74,4082.56,4083.59,4079.49,4038.46,4072.31,4043.59,4044.62,4038.97,4056.41,2047,2036,13.879,0,0,0,0,
103,4073.33,4125.13,4092.31,4117.95,4042.56,4083.08,4088.21,4077.95,4037.44,4056.92,4042.05,4044.62,4040,4059.49,2047,2038,13.886,0,0,0,0,
104,4068.72,4121.54,4089.23,4113.85,4042.56,4077.44,4078.97,4080.51,4040.51,4054.36,4037.44,4047.69,4045.13,4065.64,2047,2037,13.894,0,0,0,0,
105,4074.87,4126.67,4094.36,4120,4049.74,4080,4083.59,4087.18,4051.79,4073.85,4057.44,4066.67,4054.36,4073.85,2045,2034,13.902,0,0,0,0,
106,4090.26,4138.97,4114.87,4124.62,4049.23,4088.72,4105.64,4098.46,4061.54,4081.54,4082.05,4086.67,4064.1,4087.69,2046,2034,13.91,0,0,0,0,
107,4080,4135.9,4111.79,4111.28,4039.49,4080,4101.03,4091.79,4052.31,4070.26,4057.44,4072.82,4055.9,4082.56,2043,2035,13.917,0,0,0,0,
108,4066.15,4124.62,4094.87,4107.69,4048.72,4072.31,4081.03,4075.38,4040,4071.28,4036.92,4054.36,4047.18,4069.74,2044,2034,13.925,0,0,0,0,
109,4083.08,4132.82,4109.23,4124.1,4058.97,4085.64,4091.28,4086.67,4051.28,4090.26,4068.21,4069.23,4061.54,4084.1,2044,2036,13.934,0,0,0,0,
110,4091.28,4138.46,4123.59,4125.13,4042.56,4088.72,4102.56,4103.08,4063.08,4094.87,4085.13,4080,4072.82,4097.44,2044,2036,13.941,0,0,0,0,
111,4077.44,4128.72,4109.23,4118.97,4037.95,4080,4095.9,4091.28,4054.87,4080,4067.18,4067.69,4058.97,4085.64,2045,2036,13.95,0,0,0,0,
112,4074.87,4130.26,4100,4123.08,4057.95,4085.64,4095.38,4083.59,4051.28,4076.41,4064.62,4063.59,4051.28,4078.46,2045,2038,13.957,0,0,0,0,
113,4081.54,4138.97,4110.77,4122.05,4071.28,4097.44,4099.49,4098.46,4062.56,4084.62,4069.74,4067.69,4061.03,4084.62,2045,2038,13.966,0,0,0,0,
114,4087.18,4141.54,4117.44,4121.54,4067.69,4091.79,4106.15,4107.18,4068.21,4090.26,4065.64,4069.23,4063.59,4089.23,2045,2035,13.973,0,0,0,0,
115,4084.62,4143.08,4110.77,4124.62,4049.23,4077.95,4105.64,4096.92,4059.49,4092.82,4063.59,4063.08,4053.85,4082.56,2046,2038,13.98,0,0,0,0,
116,4073.85,4137.95,4102.05,4118.97,4040.51,4083.59,4092.82,4085.64,4046.15,4072.31,4058.46,4058.97,4042.05,4069.23,2045,2037,13.988,0,0,0,0,
117,4078.46,4130.26,4105.64,4116.41,4052.31,4095.38,4089.23,4087.18,4048.72,4055.9,4059.49,4066.15,4046.15,4071.79,2046,2036,13.996,0,0,0,0,
118,4089.23,4133.33,4112.31,4124.1,4057.44,4091.28,4096.41,4090.77,4057.44,4073.85,4065.64,4075.38,4063.59,4089.23,2045,2038,14.008,0,0,0,0,
119,4083.59,4137.44,4107.69,4125.13,4052.31,4083.08,4097.44,4088.72,4053.33,4087.18,4065.64,4071.28,4062.05,4089.23,2045,2038,14.012,0,0,0,0,
120,4078.46,4134.36,4110.26,4120.51,4065.64,4089.23,4098.46,4090.77,4050.26,4080.51,4062.56,4064.1,4047.69,4078.97,2045,2037,14.02,0,0,0,0,
121,4088.72,4134.87,4123.08,4123.08,4074.36,4096.41,4108.21,4096.92,4059.49,4080,4061.03,4073.33,4050.77,4085.64,2044,2036,14.028,0,0,0,0,
122,4086.15,4131.28,4120.51,4122.05,4051.28,4090.77,4107.69,4098.97,4061.54,4082.56,4062.05,4076.41,4055.38,4086.15,2044,2038,14.036,0,0,0,0,
123,4076.41,4131.28,4110.77,4117.44,4047.18,4089.23,4101.54,4101.03,4057.44,4077.95,4068.72,4069.74,4053.33,4082.56,2045,2036,14.044,0,0,0,0,
124,4081.54,4134.87,4111.28,4121.54,4068.21,4095.38,4103.08,4102.05,4058.97,4085.13,4074.36,4068.21,4059.49,4088.21,2044,2036,14.051,0,0,0,0,
125,4084.1,4128.21,4109.23,4121.54,4067.69,4092.31,4105.64,4098.97,4061.54,4087.18,4066.15,4070.77,4055.38,4084.62,2046,2037,14.059,0,0,0,0,
126,4080,4124.62,4103.08,4118.97,4061.03,4087.18,4105.64,4097.44,4060.51,4083.08,4061.54,4071.79,4046.67,4076.92,2045,2039,14.067,0,0,0,0,
127,4081.54,4129.74,4107.69,4120,4060,4087.18,4100.51,4088.72,4052.82,4086.15,4065.64,4073.33,4053.33,4081.54,2044,2037,14.076,0,0,0,0,
128,4087.69,4132.82,4116.41,4118.97,4048.72,4086.15,4093.85,4076.92,4045.64,4082.56,4066.15,4074.87,4056.41,4086.67,2046,2036,14.083,0,0,0,0,
0,4089.74,4135.9,4121.54,4115.38,4054.36,4085.64,4092.82,4081.03,4051.28,4080,4069.74,4076.92,4052.82,4084.62,2046,2035,14.091,0,0,0,0,
1,4093.33,4145.64,4122.56,4120.51,4084.1,4091.79,4101.03,4096.92,4062.56,4095.38,4081.03,4084.62,4066.15,4090.77,2046,2036,14.1,0,0,0,0,
2,4101.03,4149.23,4122.56,4131.28,4088.72,4094.36,4107.69,4102.05,4065.64,4111.28,4091.79,4088.21,4081.03,4101.03,2046,2037,14.107,0,0,0,0,
3,4103.08,4147.69,4125.13,4133.85,4075.38,4093.85,4109.23,4101.54,4063.08,4099.49,4093.85,4089.23,4076.92,4099.49,2046,2037,14.114,0,0,0,0,
4,4091.79,4145.64,4122.56,4126.67,4071.28,4090.77,4107.18,4102.05,4059.49,4087.69,4085.64,4087.69,4064.1,4086.67,2045,2038,14.123,0,0,0,0,
5,4076.41,4135.38,4107.69,4117.44,4063.08,4081.03,4104.62,4093.85,4055.38,4094.87,4072.31,4075.38,4057.44,4080.51,2043,2036,14.13,0,0,0,0,
6,4080,4132.31,4101.03,4116.41,4055.38,4077.95,4102.56,4087.18,4054.36,4090.77,4067.18,4071.79,4059.49,4087.69,2045,2036,14.144,0,0,0,0,
7,4090.26,4142.05,4110.77,4122.56,4061.54,4091.79,4102.05,4090.77,4056.41,4079.49,4072.82,4080.51,4060.51,4091.79,2043,2035,14.147,0,0,0,0,
8,4081.54,4137.95,4110.26,4117.95,4066.67,4094.36,4103.08,4086.67,4056.41,4082.05,4069.23,4078.97,4050.26,4082.05,2043,2036,14.155,0,0,0,0,
9,4072.82,4125.64,4100.51,4109.74,4063.59,4081.03,4097.44,4072.31,4051.28,4088.21,4063.08,4071.28,4047.18,4076.41,2043,2035,14.162,0,0,0,0,
10,4086.15,4134.36,4106.15,4116.92,4066.15,4076.41,4087.69,4069.74,4051.28,4088.21,4070.77,4085.13,4059.49,4088.21,2043,2038,14.17,0,0,0,0,
11,4098.46,4147.69,4117.44,4128.21,4077.44,4084.1,4090.77,4077.95,4061.54,4095.38,4080,4099.49,4066.67,4097.95,2043,2038,14.184,0,0,0,0,
12,4090.77,4142.56,4113.33,4123.59,4066.15,4084.62,4100,4080.51,4064.1,4091.28,4074.36,4088.72,4062.05,4091.28,2043,2037,14.187,0,0,0,0,
13,4084.62,4136.92,4108.21,4120,4048.72,4082.05,4105.13,4085.13,4059.49,4077.95,4072.31,4084.62,4064.1,4093.33,2042,2037,14.193,0,0,0,0,
14,4085.13,4137.95,4112.82,4124.62,4058.97,4087.18,4112.31,4089.23,4063.59,4088.21,4081.03,4093.33,4064.1,4095.38,2044,2037,14.201,0,0,0,0,
15,4082.05,4141.03,4110.26,4118.46,4082.56,4095.9,4117.95,4084.1,4065.13,4107.18,4078.46,4085.13,4054.87,4080.51,2044,2038,14.209,0,0,0,0,
16,4075.9,4136.92,4101.54,4109.74,4080.51,4095.38,4114.87,4083.08,4059.49,4103.59,4064.62,4068.72,4047.18,4069.23,2043,2035,14.217,0,0,0,0,
17,4070.26,4123.08,4095.9,4107.18,4066.67,4088.72,4110.26,4091.28,4061.03,4086.67,4061.03,4066.67,4046.15,4071.79,2044,2036,14.225,0,0,0,0,
18,4067.69,4124.1,4091.79,4106.15,4065.64,4088.72,4108.72,4088.72,4063.08,4077.95,4066.67,4066.15,4048.72,4073.33,2045,2036,14.233,0,0,0,0,
19,4073.85,4135.38,4093.85,4112.31,4061.54,4086.15,4110.26,4088.21,4061.54,4080,4069.23,4066.67,4052.82,4073.33,2044,2036,14.241,0,0,0,0,
20,4076.92,4128.72,4100,4116.92,4055.38,4076.92,4106.67,4095.9,4061.03,4083.08,4068.72,4071.28,4048.72,4071.28,2046,2037,14.248,0,0,0,0,
21,4075.9,4124.62,4106.67,4114.36,4063.59,4082.05,4103.08,4094.87,4059.49,4086.15,4065.13,4069.23,4043.59,4071.28,2045,2038,14.255,0,0,0,0,
22,4080.51,4135.9,4111.28,4111.28,4075.38,4092.82,4108.21,4096.41,4060,4089.74,4066.15,4073.33,4054.36,4081.54,2047,2038,14.264,0,0,0,0,
23,4078.46,4129.23,4106.67,4110.26,4062.05,4081.54,4108.21,4105.13,4063.08,4090.77,4073.85,4076.92,4060.51,4082.56,2047,2035,14.272,0,0,0,0,
24,4068.21,4113.33,4096.92,4106.67,4045.64,4067.69,4100,4099.49,4056.92,4087.18,4077.95,4068.21,4049.74,4068.72,2047,2034,14.28,0,0,0,0,
25,4069.23,4117.44,4095.38,4107.69,4056.41,4074.36,4102.05,4087.18,4050.77,4076.92,4073.85,4064.62,4044.62,4068.72,2046,2034,14.288,0,0,0,0,
26,4076.41,4124.62,4101.54,4111.28,4069.74,4084.62,4110.26,4095.38,4055.9,4075.38,4071.79,4069.23,4054.36,4078.46,2047,2034,14.296,0,0,0,0,
27,4072.82,4120,4101.03,4106.15,4067.18,4085.13,4108.72,4103.59,4061.03,4087.18,4072.31,4063.08,4053.33,4069.74,2046,2035,14.304,0,0,0,0,
28,4070.77,4121.03,4096.92,4105.64,4068.21,4084.62,4108.72,4099.49,4060.51,4087.69,4073.33,4058.46,4044.1,4063.59,2046,2036,14.311,0,0,0,0,
29,4072.82,4125.64,4094.87,4109.23,4072.31,4082.56,4108.21,4100.51,4060.51,4075.38,4071.28,4058.46,4046.67,4069.74,2046,2037,14.319,0,0,0,0,
30,4071.28,4117.95,4092.82,4106.15,4060.51,4078.46,4101.54,4100.51,4059.49,4077.44,4065.64,4055.9,4051.28,4069.23,2047,2037,14.327,0,0,0,0,
31,4072.31,4113.33,4093.85,4103.08,4058.97,4078.97,4099.49,4095.38,4056.41,4087.69,4070.77,4062.56,4050.26,4068.72,2046,2036,14.335,0,0,0,0,
32,4081.54,4125.64,4102.56,4107.69,4076.41,4085.13,4110.26,4104.1,4063.08,4091.79,4087.69,4075.9,4057.95,4082.56,2045,2036,14.343,0,0,0,0,
33,4086.15,4130.26,4109.74,4112.31,4077.95,4088.21,4118.97,4121.03,4074.87,4091.79,4094.87,4081.54,4064.62,4089.23,2046,2041,14.351,0,0,0,0,
34,4078.46,4120,4102.56,4106.15,4063.59,4084.1,4113.85,4120,4075.38,4091.28,4088.21,4080.51,4054.36,4077.44,2047,2040,14.36,0,0,0,0,
35,4070.77,4114.87,4094.36,4103.08,4054.36,4074.87,4103.59,4107.69,4063.59,4087.18,4080,4073.85,4042.56,4069.23,2046,2040,14.367,0,0,0,0,
36,4075.9,4117.95,4101.54,4112.82,4057.44,4071.79,4101.03,4103.08,4060.51,4082.56,4077.95,4072.31,4044.62,4075.9,2045,2040,14.374,0,0,0,0,
37,4084.62,4121.03,4107.18,4113.33,4064.1,4080,4110.77,4109.23,4068.72,4082.56,4080,4078.46,4049.23,4082.56,2045,2040,14.383,0,0,0,0,
38,4088.21,4121.54,4107.18,4109.23,4072.82,4088.21,4118.97,4128.72,4067.69,4086.15,4084.62,4083.08,4055.38,4081.03,2046,2040,14.39,0,0,0,0,
39,4091.79,4121.54,4109.23,4117.44,4081.03,4088.21,4118.46,4138.97,4066.67,4090.77,4088.21,4081.03,4061.03,4081.03,2045,2037,14.398,0,0,0,0,
40,4091.28,4122.56,4109.74,4117.95,4086.67,4083.59,4113.33,4117.95,4068.72,4089.74,4085.64,4077.95,4053.33,4081.03,2045,2037,14.406,0,0,0,0,
41,4085.64,4119.49,4107.69,4109.23,4075.9,4079.49,4109.23,4098.46,4065.64,4081.03,4080,4076.41,4040.51,4082.05,2044,2036,14.415,0,0,0,0,
42,4093.85,4124.1,4114.87,4116.92,4064.1,4083.59,4116.92,4111.28,4066.67,4088.21,4086.15,4081.03,4050.26,4096.41,2044,2038,14.422,0,0,0,0,
43,4109.74,4140.51,4131.28,4128.72,4078.46,4097.44,4134.87,4132.31,4081.54,4117.95,4102.05,4090.77,4072.31,4107.18,2044,2036,14.43,0,0,0,0,
44,4110.26,4145.64,4132.82,4121.03,4088.72,4102.05,4137.95,4132.82,4087.69,4117.44,4107.69,4089.74,4072.82,4100.51,2044,2037,14.437,0,0,0,0,
45,4104.1,4138.97,4123.59,4116.41,4084.62,4096.92,4127.69,4128.21,4080,4089.23,4109.23,4087.18,4068.21,4100.51,2043,2036,14.445,0,0,0,0,
46,4110.26,4143.08,4125.64,4123.59,4093.85,4102.56,4133.85,4133.85,4085.13,4108.72,4118.46,4094.87,4080,4113.33,2043,2035,14.453,0,0,0,0,
47,4122.56,4156.41,4138.97,4132.31,4112.82,4109.74,4144.62,4141.03,4095.9,4144.1,4123.59,4105.13,4094.36,4125.64,2044,2036,14.461,0,0,0,0,
48,4126.15,4164.1,4142.56,4140.51,4116.41,4107.18,4142.05,4137.95,4094.87,4128.72,4122.05,4105.64,4094.36,4131.28,2044,2036,14.47,0,0,0,0,
49,4121.03,4163.08,4136.92,4140.51,4103.08,4106.15,4140,4133.33,4090.26,4113.33,4123.08,4100,4086.67,4127.18,2044,2038,14.477,0,0,0,0,
50,4116.41,4155.9,4137.95,4135.9,4097.44,4106.67,4141.54,4135.9,4093.33,4132.31,4121.54,4096.92,4080,4117.95,2044,2038,14.485,0,0,0,0,
51,4117.44,4153.33,4138.46,4133.33,4106.67,4103.59,4137.95,4137.44,4092.82,4130.77,4120.51,4095.38,4076.92,4114.36,2046,2037,14.494,0,0,0,0,
52,4118.97,4155.38,4140.51,4135.38,4100.51,4101.03,4136.41,4136.41,4086.15,4105.64,4124.1,4097.44,4076.41,4118.97,2046,2037,14.501,0,0,0,0,
53,4122.05,4155.9,4149.74,4137.44,4088.72,4100.51,4143.08,4144.1,4091.79,4108.72,4124.62,4106.67,4076.92,4123.59,2046,2039,14.508,0,0,0,0,
54,4124.62,4161.03,4154.36,4135.9,4101.03,4096.41,4144.62,4151.79,4097.95,4131.79,4127.18,4107.18,4081.03,4125.64,2046,2039,14.516,0,0,0,0,
55,4120,4164.62,4147.18,4135.9,4105.64,4095.38,4140.51,4148.21,4093.85,4132.82,4129.74,4103.59,4080,4133.33,2046,2041,14.525,0,0,0,0,
56,4112.31,4157.44,4137.95,4135.38,4090.77,4094.87,4140,4138.97,4090.26,4118.97,4121.03,4099.49,4070.26,4130.77,2045,2042,14.532,0,0,0,0,
57,4108.21,4147.69,4134.36,4127.69,4076.92,4087.18,4140.51,4131.79,4090.77,4115.38,4112.31,4090.26,4064.62,4111.79,2045,2042,14.541,0,0,0,0,
58,4107.18,4146.67,4135.38,4120.51,4071.79,4081.54,4136.41,4130.77,4089.23,4118.97,4116.92,4081.54,4068.21,4104.62,2044,2039,14.548,0,0,0,0,
59,4108.21,4148.21,4135.38,4122.05,4087.18,4086.67,4135.9,4130.26,4086.15,4122.56,4118.97,4084.1,4071.28,4112.31,2043,2038,14.556,0,0,0,0,
60,4110.26,4147.69,4130.26,4124.62,4107.18,4091.28,4140,4127.69,4085.64,4117.44,4110.77,4087.18,4068.72,4114.36,2042,2039,14.564,0,0,0,0,
61,4109.74,4147.18,4129.74,4129.23,4096.92,4089.74,4134.36,4127.69,4087.18,4103.59,4113.33,4085.13,4067.18,4112.31,2043,2039,14.572,0,0,0,0,
62,4109.23,4148.21,4133.85,4133.85,4086.67,4087.69,4127.69,4129.74,4088.21,4104.1,4118.97,4089.23,4072.82,4116.92,2042,2038,14.579,0,0,0,0,
63,4116.92,4153.33,4135.38,4133.85,4105.13,4092.31,4138.97,4133.33,4089.23,4124.62,4118.46,4094.36,4086.67,4123.08,2043,2039,14.587,0,0,0,0,
64,4127.69,4164.1,4140.51,4135.9,4108.72,4095.9,4153.33,4143.08,4092.82,4131.79,4126.67,4101.03,4092.82,4130.77,2043,2038,14.596,0,0,0,0,
65,4126.67,4166.67,4143.08,4137.44,4090.77,4089.23,4149.23,4147.69,4093.85,4125.64,4137.95,4105.64,4084.1,4130.26,2044,2038,14.603,0,0,0,0,
66,4120.51,4158.46,4136.92,4134.87,4089.23,4087.18,4140.51,4141.54,4088.72,4132.31,4133.85,4100,4084.1,4122.56,2044,2038,14.611,0,0,0,0,
67,4121.03,4152.82,4133.33,4135.9,4098.97,4088.72,4138.97,4137.95,4084.62,4130.77,4127.18,4090.77,4091.79,4117.95,2044,2037,14.625,0,0,0,0,
68,4116.41,4148.72,4128.72,4135.9,4096.92,4086.15,4138.97,4135.38,4085.13,4106.67,4123.59,4086.15,4080,4111.79,2045,2038,14.63,0,0,0,0,
69,4111.28,4146.67,4125.64,4132.82,4086.15,4086.15,4140.51,4131.79,4087.69,4103.59,4116.41,4087.18,4065.13,4112.31,2047,2037,14.635,0,0,0,0,
70,4115.9,4154.36,4136.41,4134.36,4076.41,4084.1,4141.03,4135.9,4087.69,4118.97,4121.03,4092.82,4069.23,4120.51,2047,2037,14.642,0,0,0,0,
71,4120,4155.38,4141.54,4136.41,4078.46,4080.51,4136.41,4139.49,4085.64,4111.28,4125.13,4095.9,4069.74,4120,2046,2037,14.65,0,0,0,0,
72,4119.49,4152.82,4136.41,4135.38,4100.51,4086.15,4137.95,4135.9,4088.21,4109.23,4119.49,4092.82,4070.77,4115.38,2046,2037,14.658,0,0,0,0,
73,4119.49,4155.9,4135.38,4132.82,4106.15,4088.72,4140,4133.33,4090.26,4122.05,4118.46,4090.26,4079.49,4116.41,2046,2038,14.666,0,0,0,0,
74,4116.41,4157.44,4138.46,4132.31,4088.21,4078.46,4137.44,4137.44,4088.72,4123.59,4118.97,4094.36,4080.51,4117.95,2048,2038,14.675,0,0,0,0,
75,4115.38,4155.38,4138.97,4135.38,4079.49,4074.87,4137.44,4141.03,4087.18,4117.95,4112.82,4097.95,4074.87,4114.87,2047,2038,14.682,0,0,0,0,
76,4115.9,4149.74,4132.31,4130.26,4078.97,4073.33,4134.36,4133.33,4083.59,4108.21,4099.49,4086.15,4067.18,4105.64,2045,2039,14.691,0,0,0,0,
77,4110.26,4146.15,4123.08,4121.54,4081.03,4066.67,4130.26,4127.69,4081.03,4102.05,4091.79,4074.87,4063.59,4102.56,2045,2037,14.698,0,0,0,0,
78,4110.26,4154.36,4129.74,4130.26,4088.72,4073.85,4139.49,4137.95,4087.69,4114.36,4108.21,4087.69,4074.87,4116.41,2045,2037,14.705,0,0,0,0,
79,4115.9,4158.46,4141.03,4139.49,4084.1,4082.05,4146.15,4144.1,4093.33,4123.08,4119.49,4097.95,4079.49,4121.03,2044,2037,14.713,0,0,0,0,
80,4112.31,4150.77,4134.36,4132.82,4074.36,4074.87,4137.44,4132.82,4089.74,4115.9,4101.54,4084.62,4067.69,4105.64,2044,2036,14.721,0,0,0,0,
81,4107.18,4152.31,4128.72,4127.69,4071.79,4068.21,4133.33,4131.79,4085.64,4120,4096.41,4079.49,4070.26,4102.56,2043,2036,14.729,0,0,0,0,
82,4108.21,4156.41,4131.28,4128.21,4068.21,4070.26,4137.44,4138.46,4085.13,4111.79,4103.59,4089.23,4074.36,4110.77,2043,2038,14.737,0,0,0,0,
83,4111.28,4154.36,4135.38,4130.26,4078.97,4071.28,4132.82,4136.92,4090.26,4092.31,4100,4096.41,4068.72,4113.33,2044,2036,14.745,0,0,0,0,
84,4109.74,4154.36,4134.87,4133.85,4091.79,4067.69,4130.26,4129.23,4092.31,4098.46,4102.05,4095.9,4072.82,4113.85,2043,2037,14.753,0,0,0,0,
85,4104.62,4155.38,4125.13,4133.85,4078.46,4062.05,4136.41,4131.79,4085.13,4110.26,4115.38,4088.21,4076.92,4114.36,2043,2038,14.767,0,0,0,0,
86,4112.82,4154.87,4127.18,4134.87,4063.08,4063.59,4137.44,4156.92,4082.05,4111.79,4122.56,4089.74,4073.85,4114.36,2044,2038,14.768,0,0,0,0,
87,4124.1,4157.44,4140,4136.92,4064.62,4070.77,4137.95,4173.85,4091.79,4123.59,4129.23,4105.13,4078.97,4118.97,2044,2038,14.777,0,0,0,0,
88,4111.79,4155.38,4131.28,4135.9,4063.59,4067.69,4140,4151.79,4094.36,4127.69,4122.56,4094.36,4075.9,4110.26,2044,2039,14.784,0,0,0,0,
89,4097.95,4150.26,4112.82,4136.41,4067.69,4062.05,4133.85,4129.74,4085.64,4111.79,4106.67,4070.26,4064.62,4093.33,2044,2039,14.795,0,0,0,0,
90,4110.77,4157.95,4122.05,4140.51,4087.18,4068.72,4130.77,4142.56,4085.13,4109.23,4116.92,4077.95,4073.85,4097.95,2045,2041,14.8,0,0,0,0,
91,4128.72,4171.79,4141.54,4140.51,4095.9,4078.46,4142.56,4151.79,4094.36,4117.44,4130.26,4098.97,4089.23,4123.08,2045,2042,14.808,0,0,0,0,
92,4124.62,4173.85,4142.56,4138.97,4077.95,4076.41,4148.21,4142.05,4094.87,4114.36,4119.49,4093.85,4081.03,4126.67,2045,2040,14.816,0,0,0,0,
93,4113.85,4168.72,4130.77,4140,4068.72,4070.26,4137.95,4134.87,4090.26,4115.38,4111.28,4077.44,4069.74,4109.23,2046,2041,14.824,0,0,0,0,
94,4110.77,4167.18,4122.56,4141.03,4082.56,4073.33,4135.9,4133.85,4092.31,4127.69,4117.44,4074.87,4075.9,4098.97,2047,2041,14.832,0,0,0,0,
95,4115.9,4171.28,4130.26,4141.54,4075.9,4074.36,4138.46,4135.38,4091.28,4126.67,4123.08,4083.59,4081.54,4107.18,2047,2042,14.839,0,0,0,0,
96,4122.56,4174.87,4135.38,4139.49,4064.1,4064.62,4134.36,4136.92,4083.08,4107.18,4117.44,4091.79,4078.46,4114.87,2047,2042,14.848,0,0,0,0,
97,4118.97,4173.33,4125.13,4138.46,4082.05,4060,4133.85,4132.31,4083.08,4096.41,4106.67,4087.18,4077.44,4109.23,2047,2044,14.854,0,0,0,0,
98,4111.28,4172.82,4116.41,4136.41,4089.74,4064.1,4136.92,4127.69,4092.31,4107.69,4103.59,4078.97,4078.46,4105.64,2046,2043,14.862,0,0,0,0,
99,4115.9,4172.82,4124.62,4136.92,4068.21,4063.08,4134.36,4123.08,4088.21,4115.38,4105.13,4078.97,4074.36,4107.69,2047,2043,14.871,0,0,0,0,
100,4125.13,4174.36,4137.95,4145.13,4060,4059.49,4132.82,4124.62,4082.05,4104.62,4102.05,4086.67,4072.31,4111.79,2045,2040,14.879,0,0,0,0,
101,4125.64,4177.44,4142.56,4147.69,4071.28,4060,4134.87,4131.28,4085.64,4106.15,4103.08,4090.26,4077.95,4116.92,2045,2040,14.886,0,0,0,0,
102,4122.56,4176.41,4138.46,4138.46,4075.38,4058.46,4131.28,4131.28,4086.15,4111.79,4106.67,4083.59,4082.05,4114.87,2046,2040,14.894,0,0,0,0,
103,4123.08,4176.92,4136.92,4137.44,4072.82,4059.49,4132.82,4125.64,4078.46,4103.08,4104.1,4079.49,4083.59,4111.28,2046,2039,14.908,0,0,0,0,
104,4127.69,4187.18,4145.13,4149.23,4070.26,4063.59,4141.03,4127.69,4078.46,4104.62,4110.77,4089.23,4085.13,4119.49,2046,2040,14.911,0,0,0,0,
105,4128.72,4188.72,4145.64,4152.31,4064.62,4058.46,4140.51,4129.23,4085.64,4109.74,4113.33,4093.33,4084.62,4123.59,2045,2040,14.917,0,0,0,0,
106,4116.41,4174.36,4130.77,4143.08,4065.64,4049.74,4135.38,4120,4084.62,4096.92,4096.92,4081.54,4079.49,4117.95,2045,2040,14.926,0,0,0,0,
107,4107.69,4171.79,4124.62,4139.49,4077.95,4051.79,4137.44,4114.36,4079.49,4089.23,4089.74,4075.9,4078.97,4116.41,2045,2041,14.933,0,0,0,0,
108,4117.44,4186.15,4134.87,4143.08,4082.05,4058.97,4142.05,4126.15,4082.56,4093.33,4103.59,4085.13,4082.56,4116.92,2045,2039,14.941,0,0,0,0,
109,4123.59,4188.72,4139.49,4142.56,4062.05,4054.36,4145.13,4137.44,4087.69,4094.87,4108.21,4090.26,4082.56,4118.46,2047,2037,14.949,0,0,0,0,
110,4117.95,4180,4134.87,4140.51,4058.46,4045.13,4147.18,4132.31,4089.23,4108.72,4102.05,4088.72,4088.21,4123.08,2046,2037,14.957,0,0,0,0,
111,4117.44,4179.49,4133.85,4145.64,4063.59,4044.1,4147.18,4118.46,4089.23,4115.38,4101.54,4087.18,4092.31,4118.97,2045,2037,14.964,0,0,0,0,
112,4117.95,4185.13,4132.82,4151.79,4047.69,4041.54,4143.59,4111.79,4090.26,4103.08,4101.03,4085.64,4085.64,4113.85,2044,2037,14.973,0,0,0,0,
113,4121.54,4189.74,4138.46,4153.85,4060.51,4046.67,4146.67,4113.85,4088.72,4101.54,4099.49,4088.21,4087.18,4129.74,2044,2038,14.982,0,0,0,0,
114,4131.79,4199.49,4150.26,4155.9,4092.82,4057.95,4155.9,4117.44,4090.77,4098.97,4106.67,4101.03,4098.97,4148.72,2045,2037,14.989,0,0,0,0,
115,4131.79,4204.1,4150.26,4158.97,4078.46,4054.87,4157.44,4119.49,4095.38,4093.85,4112.31,4103.08,4094.36,4144.1,2045,2036,14.997,0,0,0,0,
116,4122.56,4196.92,4140,4155.38,4060,4044.1,4151.79,4121.54,4097.44,4110.26,4105.64,4086.67,4087.69,4130.26,2045,2038,15.006,0,0,0,0,
117,4120.51,4196.41,4137.44,4150.77,4075.9,4047.69,4151.79,4128.21,4094.36,4122.56,4102.56,4078.97,4094.87,4127.69,2046,2039,15.013,0,0,0,0,
118,4124.62,4201.03,4142.05,4154.36,4070.26,4056.41,4164.1,4142.56,4093.85,4105.64,4104.62,4089.74,4090.77,4128.72,2047,2040,15.021,0,0,0,0,
119,4123.08,4195.38,4141.54,4154.87,4058.97,4054.87,4174.87,4149.23,4097.95,4092.31,4095.38,4091.79,4078.46,4123.59,2047,2038,15.028,0,0,0,0,
120,4114.87,4186.67,4134.87,4150.26,4075.9,4053.33,4172.31,4136.41,4093.33,4091.79,4081.54,4078.46,4078.97,4122.05,2046,2038,15.036,0,0,0,0,
121,4110.26,4192.31,4135.38,4151.28,4079.49,4054.87,4168.21,4134.87,4090.26,4096.92,4087.69,4080.51,4087.18,4131.28,2046,2037,15.044,0,0,0,0,
122,4117.95,4204.1,4143.59,4156.92,4068.72,4053.85,4172.31,4149.23,4095.9,4110.77,4101.54,4090.77,4091.28,4141.03,2045,2037,15.052,0,0,0,0,
123,4125.64,4208.21,4144.62,4158.46,4067.18,4046.67,4168.72,4148.21,4092.82,4110.77,4098.97,4086.67,4093.33,4141.54,2046,2036,15.06,0,0,0,0,
124,4121.54,4205.64,4139.49,4156.41,4063.59,4041.54,4158.46,4139.49,4087.18,4101.03,4094.87,4079.49,4095.38,4132.82,2047,2038,15.068,0,0,0,0,
125,4120,4204.62,4140,4156.92,4061.54,4041.54,4161.54,4147.69,4094.36,4106.15,4104.1,4087.69,4097.95,4130.26,2046,2038,15.076,0,0,0,0,
126,4124.1,4207.18,4140.51,4158.46,4060,4043.08,4168.21,4149.74,4095.9,4102.05,4108.21,4095.38,4101.03,4134.36,2046,2037,15.084,0,0,0,0,
127,4118.46,4209.74,4139.49,4156.41,4050.26,4041.03,4167.18,4140.51,4089.74,4090.77,4101.03,4090.26,4093.85,4137.44,2047,2035,15.092,0,0,0,0,
128,4110.77,4211.79,4137.44,4150.77,4056.41,4034.87,4164.1,4141.03,4094.87,4105.13,4096.92,4085.13,4082.56,4136.41,2049,2033,15.099,0,0,0,0,
0,4114.36,4214.36,4133.33,4153.85,4070.77,4037.95,4165.64,4149.74,4098.46,4124.1,4100.51,4085.64,4085.64,4140,2047,2032,15.107,0,0,0,0,
1,4123.08,4217.44,4139.49,4166.67,4068.72,4045.64,4175.38,4161.54,4096.92,4114.36,4109.23,4095.38,4096.41,4147.69,2047,2034,15.115,0,0,0,0,
2,4123.08,4221.03,4149.74,4171.28,4063.08,4042.05,4177.95,4166.15,4097.95,4102.56,4108.72,4099.49,4093.33,4143.08,2046,2037,15.123,0,0,0,0,
3,4119.49,4221.54,4145.13,4161.03,4057.44,4036.41,4171.28,4163.08,4097.95,4099.49,4098.46,4091.28,4084.1,4132.82,2046,2038,15.131,0,0,0,0,
4,4115.38,4219.49,4136.41,4155.38,4051.79,4040.51,4174.36,4170.26,4100.51,4097.95,4102.56,4089.23,4088.21,4134.87,2046,2037,15.139,0,0,0,0,
5,4114.36,4222.05,4140.51,4164.1,4067.69,4044.62,4183.59,4181.54,4108.72,4116.41,4111.79,4098.46,4096.41,4144.1,2045,2037,15.147,0,0,0,0,
6,4117.95,4231.79,4145.13,4168.72,4083.08,4049.23,4186.15,4183.08,4112.31,4128.72,4106.15,4100,4092.31,4147.18,2045,2038,15.155,0,0,0,0,
7,4119.49,4236.41,4143.08,4166.15,4074.36,4056.41,4187.69,4178.97,4108.21,4112.31,4102.56,4094.36,4088.72,4143.08,2045,2040,15.162,0,0,0,0,
8,4116.41,4232.82,4140.51,4162.05,4069.23,4052.31,4188.21,4180.51,4105.64,4114.36,4112.31,4093.33,4093.85,4137.95,2045,2043,15.17,0,0,0,0,
9,4116.41,4231.79,4139.49,4161.03,4069.23,4043.59,4185.13,4182.56,4108.21,4125.13,4113.33,4093.33,4100.51,4137.44,2044,2043,15.178,0,0,0,0,
10,4120,4231.28,4144.1,4163.59,4061.03,4045.64,4191.79,4182.05,4108.72,4105.13,4104.62,4096.41,4097.95,4141.54,2045,2044,15.185,0,0,0,0,
11,4122.56,4231.79,4153.85,4167.69,4061.54,4050.77,4202.05,4184.1,4108.72,4098.97,4107.18,4103.59,4092.82,4146.67,2045,2041,15.193,0,0,0,0,
12,4123.08,4238.97,4156.92,4169.74,4072.31,4050.77,4203.59,4192.82,4113.33,4124.62,4112.31,4102.56,4094.36,4153.33,2045,2039,15.202,0,0,0,0,
13,4124.1,4246.15,4155.9,4171.28,4080.51,4052.82,4204.1,4203.59,4115.38,4135.9,4106.15,4098.46,4096.41,4158.46,2044,2037,15.211,0,0,0,0,
14,4125.13,4243.08,4159.49,4172.31,4074.36,4050.77,4203.59,4209.23,4110.77,4123.59,4096.41,4096.41,4094.87,4155.38,2045,2037,15.218,0,0,0,0,
15,4125.64,4244.62,4166.67,4170.77,4074.87,4050.77,4200.51,4218.97,4111.28,4110.77,4105.64,4097.44,4098.46,4152.82,2044,2036,15.226,0,0,0,0,
16,4125.13,4254.36,4167.69,4170.77,4090.77,4058.97,4208.21,4221.54,4118.46,4118.97,4116.41,4099.49,4105.13,4156.92,2044,2037,15.233,0,0,0,0,
17,4125.13,4253.33,4162.05,4170.26,4087.18,4056.41,4211.79,4215.9,4122.56,4140.51,4112.82,4098.46,4106.67,4161.54,2042,2035,15.241,0,0,0,0,
18,4122.05,4249.74,4162.05,4170.77,4075.38,4048.21,4202.05,4219.49,4126.67,4142.56,4114.36,4096.41,4105.13,4162.05,2042,2036,15.249,0,0,0,0,
19,4124.1,4260.51,4170.77,4172.82,4081.03,4052.82,4204.62,4230.26,4127.18,4129.74,4119.49,4101.03,4106.15,4166.15,2041,2036,15.257,0,0,0,0,
20,4126.15,4265.64,4172.31,4170.26,4082.05,4055.38,4216.92,4230.77,4127.69,4128.72,4116.41,4102.05,4107.69,4171.79,2044,2036,15.265,0,0,0,0,
21,4125.13,4260,4171.79,4172.31,4075.38,4052.31,4217.95,4228.21,4130.26,4137.95,4114.87,4096.92,4109.23,4172.82,2045,2035,15.273,0,0,0,0,
22,4130.77,4269.74,4184.62,4178.97,4094.36,4062.56,4217.95,4238.46,4131.79,4150.77,4123.08,4097.95,4115.9,4175.38,2045,2036,15.281,0,0,0,0,
23,4134.87,4285.13,4188.72,4177.95,4100.51,4065.13,4222.05,4247.18,4133.85,4156.41,4126.67,4098.46,4120.51,4177.95,2046,2037,15.289,0,0,0,0,
24,4127.18,4280,4175.9,4172.31,4076.41,4053.85,4216.41,4244.62,4134.87,4146.67,4124.1,4091.28,4117.44,4168.72,2045,2038,15.295,0,0,0,0,
25,4123.59,4275.38,4179.49,4176.92,4086.15,4060.51,4222.56,4247.69,4136.92,4142.05,4124.62,4091.79,4111.28,4164.1,2047,2038,15.304,0,0,0,0,
26,4128.21,4283.08,4187.69,4180,4118.46,4070.26,4237.95,4255.9,4139.49,4149.23,4124.1,4094.87,4112.82,4177.44,2046,2039,15.312,0,0,0,0,
27,4123.59,4280,4174.36,4172.31,4110.26,4058.97,4227.18,4249.23,4136.41,4154.36,4115.9,4082.56,4111.79,4180,2048,2037,15.32,0,0,0,0,
28,4118.97,4277.44,4167.18,4172.82,4089.74,4056.41,4217.44,4248.72,4134.36,4154.36,4111.28,4078.46,4106.67,4172.31,2047,2037,15.329,0,0,0,0,
29,4124.1,4288.21,4173.85,4180.51,4102.05,4070.77,4228.21,4266.15,4143.08,4162.05,4124.1,4089.74,4110.26,4175.9,2047,2037,15.336,0,0,0,0,
30,4124.62,4292.82,4171.28,4178.97,4107.69,4071.28,4227.69,4270.26,4148.21,4168.21,4136.92,4092.31,4114.87,4183.59,2047,2037,15.344,0,0,0,0,
31,4129.23,4287.69,4167.18,4174.36,4093.85,4062.05,4215.38,4263.08,4142.05,4152.82,4132.82,4087.18,4117.44,4183.08,2047,2043,15.352,0,0,0,0,
32,4134.36,4290.26,4167.69,4174.36,4108.21,4063.59,4218.97,4261.54,4138.46,4144.62,4128.21,4089.23,4121.54,4182.56,2047,2041,15.359,0,0,0,0,
33,4124.62,4292.31,4160.51,4170.77,4116.92,4063.59,4217.95,4250.77,4137.44,4160.51,4127.69,4087.69,4118.97,4181.03,2046,2040,15.367,0,0,0,0,
34,4123.08,4288.21,4161.54,4169.74,4096.41,4061.54,4214.87,4241.54,4136.92,4170.26,4128.21,4088.21,4112.82,4184.1,2045,2039,15.375,0,0,0,0,
35,4138.46,4292.82,4171.79,4177.44,4110.77,4070.26,4227.69,4254.36,4137.95,4168.21,4133.85,4098.97,4114.87,4195.9,2046,2037,15.384,0,0,0,0,
