COUNTER,AF3,F7,F3, FC5, T7, P7, O1, O2,P8, T8, FC6, F4,F8, AF4,GYROX, GYROY, TIMESTAMP, FUNC_ID, FUNC_VALUE, MARKER, SYNC_SIGNAL,
71,4001.54,4035.38,4025.13,4072.82,4140.51,4160.51,3989.74,3962.05,4118.97,4002.56,4071.28,3969.74,4071.79,4096.92,1979,2078,2.628,0,0,0,0,
72,4005.13,4046.67,4029.23,4075.9,4146.15,4151.28,3994.36,3980,4130.77,4010.26,4084.62,3958.46,4070.26,4097.95,1988,2078,2.635,0,0,0,0,
73,3990.26,4029.74,4015.38,4065.64,4148.21,4153.85,3989.74,3964.1,4120.51,3985.64,4072.31,3938.97,4060.51,4088.21,2005,2082,2.646,0,0,0,0,
74,3978.46,4022.56,4006.15,4060,4147.18,4162.05,3976.92,3941.03,4095.9,3961.03,4043.08,3924.1,4046.15,4071.79,2014,2082,2.652,0,0,0,0,
75,3993.33,4043.59,4020,4071.79,4170.77,4167.18,3984.62,3951.79,4109.74,3990.26,4053.33,3939.49,4050.26,4082.56,2023,2082,2.659,0,0,0,0,
76,4009.74,4046.15,4029.74,4077.95,4177.95,4168.21,3990.77,3974.87,4149.23,4021.03,4076.41,3967.18,4064.62,4106.15,2035,2082,2.666,0,0,0,0,
77,4018.97,4049.74,4038.46,4081.54,4174.87,4170.26,3994.87,3977.95,4137.44,3999.49,4075.9,3971.79,4069.74,4111.79,2038,2078,2.674,0,0,0,0,
78,4012.31,4058.46,4035.38,4078.97,4163.59,4168.21,3994.36,3957.95,4095.38,3976.92,4054.36,3948.21,4055.9,4090.77,2045,2070,2.682,0,0,0,0,
79,3992.31,4035.38,4014.87,4064.1,4127.18,4162.56,3971.28,3940,4091.28,3972.82,4038.46,3931.28,4040,4069.74,2049,2062,2.689,0,0,0,0,
80,4004.1,4028.72,4025.64,4070.77,4136.41,4169.74,3975.38,3950.26,4112.82,3986.15,4060,3957.44,4063.08,4093.33,2057,2057,2.697,0,0,0,0,
81,4030.26,4059.49,4050.77,4089.74,4189.23,4179.49,4010.26,3972.82,4128.21,4010.26,4081.03,3988.21,4094.87,4125.64,2061,2058,2.706,0,0,0,0,
82,4011.28,4056.41,4031.28,4078.97,4170.26,4166.67,3994.87,3961.03,4131.79,4011.79,4050.77,3969.23,4078.46,4103.59,2066,2061,2.713,0,0,0,0,
83,3985.13,4021.54,4006.15,4061.03,4127.69,4160.51,3961.03,3935.9,4115.38,3985.13,4022.56,3942.56,4055.38,4074.36,2068,2061,2.721,0,0,0,0,
84,4008.72,4030.77,4026.67,4069.23,4147.69,4174.36,3980.51,3954.87,4111.79,3963.08,4050.26,3961.54,4070.26,4101.03,2068,2057,2.729,0,0,0,0,
85,4025.64,4047.69,4036.92,4069.74,4149.23,4170.26,3995.9,3979.49,4136.41,3987.69,4059.49,3981.54,4080,4118.46,2068,2053,2.743,0,0,0,0,
86,4001.03,4022.05,4015.9,4062.05,4106.67,4158.97,3971.79,3958.46,4131.79,4020.51,4024.1,3962.05,4072.31,4096.41,2068,2051,2.745,0,0,0,0,
87,3993.33,4014.87,4013.85,4069.74,4110.77,4166.15,3966.67,3939.49,4111.28,3991.28,4016.92,3952.31,4075.9,4092.31,2070,2047,2.757,0,0,0,0,
88,4020.51,4046.15,4037.44,4078.97,4161.54,4186.15,3992.82,3959.49,4118.97,3953.85,4040,3976.41,4083.08,4106.67,2070,2044,2.76,0,0,0,0,
89,4029.74,4054.87,4040.51,4080,4189.74,4205.64,3996.41,3963.08,4115.38,3970.77,4034.36,3981.54,4081.03,4107.18,2073,2039,2.769,0,0,0,0,
90,4024.1,4043.59,4030.77,4078.46,4178.97,4198.97,3977.95,3948.21,4102.56,3987.69,4016.41,3966.67,4085.64,4106.67,2074,2038,2.777,0,0,0,0,
91,4034.87,4044.1,4038.97,4077.44,4149.23,4171.28,3975.38,3958.97,4116.41,3973.33,4027.69,3973.33,4097.44,4110.26,2076,2039,2.785,0,0,0,0,
92,4030.77,4037.95,4033.33,4072.31,4127.18,4171.28,3975.9,3958.97,4116.41,3965.13,4030.77,3973.85,4091.79,4095.9,2077,2037,2.791,0,0,0,0,
93,4014.87,4029.74,4016.41,4066.15,4149.23,4196.41,3967.69,3944.62,4106.15,3976.92,4017.95,3956.92,4082.05,4086.15,2074,2035,2.799,0,0,0,0,
94,4018.46,4032.31,4020,4061.03,4162.56,4187.69,3966.67,3946.15,4118.46,3986.67,4018.97,3954.87,4086.67,4095.38,2072,2033,2.807,0,0,0,0,
95,4020,4018.97,4021.03,4054.87,4099.49,4163.59,3964.1,3952.31,4123.59,3972.82,4021.54,3957.44,4083.08,4087.69,2070,2035,2.815,0,0,0,0,
96,4016.92,4010.77,4018.97,4057.95,4090.26,4174.87,3957.44,3952.82,4120.51,3980.51,4029.23,3962.56,4079.49,4081.03,2070,2037,2.823,0,0,0,0,
97,4023.59,4016.41,4025.64,4057.44,4164.1,4192.82,3962.05,3947.18,4116.41,4008.21,4035.9,3975.38,4088.72,4085.64,2068,2038,2.831,0,0,0,0,
98,4027.18,4013.85,4026.67,4052.82,4166.67,4187.69,3974.87,3948.72,4100.51,3977.44,4025.64,3984.1,4095.9,4086.15,2067,2038,2.84,0,0,0,0,
99,4029.23,4012.82,4023.08,4058.46,4131.79,4184.62,3977.44,3956.41,4102.56,3946.15,4016.41,3986.15,4095.38,4086.15,2067,2041,2.847,0,0,0,0,
100,4028.21,4012.31,4017.44,4061.03,4149.23,4196.41,3967.18,3950.26,4124.1,3975.9,4014.36,3987.69,4088.21,4088.72,2070,2046,2.879,0,0,0,0,
101,4022.56,4004.62,4006.67,4049.23,4127.18,4178.97,3958.97,3941.54,4129.23,3993.85,4007.69,3993.33,4086.67,4091.79,2072,2047,2.881,0,0,0,0,
102,4013.33,3992.82,3996.41,4037.95,4075.9,4158.46,3954.87,3940,4106.15,3966.15,3989.74,3988.21,4077.95,4077.95,2072,2049,2.887,0,0,0,0,
103,3991.79,3973.85,3978.97,4027.69,4111.28,4188.72,3947.69,3927.18,4080,3926.67,3959.49,3960.51,4049.23,4040,2070,2052,2.895,0,0,0,0,
104,3997.44,3975.38,3977.95,4026.15,4159.49,4201.54,3944.62,3937.95,4107.69,3944.62,3969.23,3961.03,4058.97,4038.46,2068,2050,2.903,0,0,0,0,
105,4026.67,3993.85,4002.05,4037.44,4123.08,4163.08,3958.46,3976.41,4149.74,4010.26,4009.74,3996.41,4093.85,4078.46,2068,2047,2.911,0,0,0,0,
106,4032.82,3988.72,4011.79,4037.44,4096.92,4163.08,3986.67,3982.05,4128.72,4005.64,4011.28,4007.69,4092.31,4085.13,2070,2049,2.919,0,0,0,0,
107,4023.08,3978.97,4000.51,4023.59,4106.67,4189.74,3987.69,3963.59,4092.31,3946.15,3985.13,3989.23,4077.44,4066.67,2075,2050,2.926,0,0,0,0,
108,4015.38,3985.13,3986.15,4020,4074.36,4171.28,3958.46,3950.77,4102.56,3929.74,3972.31,3971.79,4077.44,4060.51,2079,2050,2.934,0,0,0,0,
109,4012.82,3983.08,3985.13,4027.18,4069.23,4165.13,3963.08,3955.38,4134.36,3953.85,3988.72,3976.92,4079.49,4057.44,2087,2048,2.949,0,0,0,0,
110,4023.59,3975.9,3996.92,4024.1,4131.79,4193.85,3987.69,3974.36,4140,3967.18,4000.51,3992.31,4074.36,4060,2092,2049,2.95,0,0,0,0,
111,4026.67,3977.44,3996.92,4010.77,4147.69,4189.74,3966.15,3979.49,4124.1,3979.49,3982.56,3980,4067.69,4061.03,2103,2041,2.962,0,0,0,0,
112,4020.51,3973.33,3986.67,4002.05,4109.74,4170.77,3944.62,3971.79,4122.05,3995.9,3976.92,3967.69,4079.49,4054.87,2106,2037,2.966,0,0,0,0,
113,4021.54,3964.1,3980,4004.1,4096.92,4181.54,3958.97,3970.77,4129.74,3974.87,3989.23,3978.46,4094.36,4048.21,2108,2029,2.973,0,0,0,0,
114,4008.72,3957.44,3967.69,4009.23,4097.95,4192.82,3947.18,3956.41,4113.85,3932.82,3972.31,3966.15,4066.67,4037.44,2108,2029,2.98,0,0,0,0,
115,4020,3975.9,3981.54,4023.59,4098.46,4181.03,3942.05,3968.72,4122.56,3958.97,3980.51,3975.9,4067.69,4056.41,2108,2030,2.989,0,0,0,0,
116,4062.05,4007.18,4019.49,4042.05,4128.72,4184.1,3975.38,4008.72,4165.13,4034.87,4029.23,4029.23,4113.33,4092.31,2106,2034,2.996,0,0,0,0,
117,4048.72,3994.36,4003.59,4033.33,4130.77,4200,3967.18,3991.79,4148.21,4017.44,4008.72,4017.95,4094.87,4066.67,2103,2038,3.004,0,0,0,0,
118,4019.49,3970.26,3975.38,4019.49,4077.44,4186.15,3933.33,3960.51,4110.26,3947.69,3970.77,3976.92,4055.9,4034.36,2101,2040,3.013,0,0,0,0,
119,4027.69,3961.03,3984.1,4022.05,4061.54,4170.77,3938.97,3970.26,4108.72,3926.15,3985.64,3983.08,4064.62,4041.03,2098,2041,3.02,0,0,0,0,
120,4028.21,3949.23,3978.97,4018.97,4111.79,4195.38,3955.38,3975.9,4104.1,3932.31,3992.31,3986.67,4072.31,4033.33,2097,2044,3.028,0,0,0,0,
121,4022.05,3960,3970.26,4013.85,4131.28,4210.77,3953.85,3968.21,4103.59,3956.92,3985.13,3982.56,4071.79,4036.92,2097,2044,3.036,0,0,0,0,
122,4032.82,3968.21,3983.59,4015.38,4076.92,4178.97,3949.23,3968.21,4112.82,3956.92,3989.23,3997.44,4082.56,4060,2098,2043,3.045,0,0,0,0,
123,4026.67,3943.59,3975.9,4006.67,4065.64,4160.51,3934.36,3958.97,4110.26,3943.08,3987.18,3989.23,4072.82,4038.46,2097,2043,3.052,0,0,0,0,
124,4028.21,3944.62,3972.31,4005.13,4117.95,4192.31,3938.46,3963.08,4123.59,3970.77,3994.36,3987.18,4077.95,4029.23,2094,2048,3.059,0,0,0,0,
125,4065.13,3983.08,4011.28,4027.69,4119.49,4213.33,3970.77,3997.95,4141.54,3988.72,4028.21,4028.72,4117.95,4078.46,2093,2050,3.068,0,0,0,0,
126,4062.56,3973.85,4008.21,4030.26,4083.08,4183.08,3966.15,3995.9,4112.82,3958.97,4028.72,4030.26,4110.26,4078.46,2090,2049,3.076,0,0,0,0,
127,4027.69,3940,3959.49,4006.15,4085.13,4159.49,3928.72,3960.51,4094.87,3959.49,4004.62,3986.67,4077.95,4032.82,2083,2042,3.085,0,0,0,0,
128,4026.15,3945.13,3955.9,4001.03,4090.26,4176.41,3929.23,3963.08,4126.67,3981.54,4005.13,3987.18,4085.64,4031.79,2080,2039,3.091,0,0,0,0,
0,4032.31,3941.03,3981.03,4005.13,4072.31,4192.31,3960,3985.13,4134.36,3969.74,4003.08,4010.26,4082.56,4036.41,2076,2039,3.1,0,0,0,0,
1,4021.03,3924.1,3972.31,3992.82,4076.41,4187.69,3955.9,3973.33,4109.74,3954.87,3994.36,4004.62,4062.05,4023.59,2075,2040,3.111,0,0,0,0,
2,4032.82,3938.46,3968.21,3994.87,4066.67,4188.72,3945.64,3962.56,4099.49,3932.82,4012.31,4002.56,4086.67,4044.62,2074,2043,3.117,0,0,0,0,
3,4055.9,3955.9,3989.74,4007.69,4035.9,4198.46,3958.46,3972.31,4106.67,3921.54,4021.03,4013.85,4107.18,4063.08,2074,2042,3.122,0,0,0,0,
4,4043.08,3938.46,3981.03,3996.41,4071.28,4190.77,3947.69,3965.64,4109.74,3950.77,4000.51,4005.64,4087.69,4043.08,2074,2032,3.131,0,0,0,0,
5,4030.26,3924.1,3963.08,3986.15,4118.97,4172.31,3931.28,3957.44,4103.59,3949.23,4012.31,4001.03,4094.87,4043.08,2073,2026,3.139,0,0,0,0,
6,4034.87,3938.46,3965.13,3994.36,4105.64,4175.38,3933.33,3961.54,4109.74,3940.51,4031.28,4006.15,4105.64,4053.85,2073,2027,3.148,0,0,0,0,
7,4035.38,3946.15,3964.1,3992.31,4075.9,4186.15,3932.82,3957.95,4127.18,3983.59,4012.31,4002.56,4086.67,4040.51,2072,2030,3.154,0,0,0,0,
8,4035.9,3940.51,3962.05,3990.26,4072.82,4178.97,3929.23,3953.85,4124.1,3981.03,3997.95,3998.46,4083.08,4035.9,2071,2037,3.163,0,0,0,0,
9,4044.62,3943.59,3975.9,4002.56,4080.51,4175.38,3941.54,3963.59,4108.72,3942.56,4008.21,3999.49,4102.56,4050.77,2068,2045,3.171,0,0,0,0,
10,4040,3943.59,3974.87,3997.95,4042.05,4183.08,3944.62,3967.18,4111.79,3957.44,4009.74,3991.79,4097.44,4045.13,2066,2046,3.179,0,0,0,0,
11,4021.54,3926.15,3953.33,3987.69,4021.54,4194.36,3934.87,3956.41,4113.85,3952.82,3993.33,3981.03,4071.79,4026.15,2062,2045,3.187,0,0,0,0,
12,4027.69,3922.56,3961.54,3999.49,4097.95,4208.72,3937.95,3951.28,4091.79,3908.21,3983.08,3987.18,4069.23,4027.18,2060,2041,3.194,0,0,0,0,
13,4051.28,3942.56,3986.15,4009.74,4136.41,4197.95,3946.15,3965.13,4105.64,3943.08,3998.97,4010.77,4096.92,4044.1,2057,2039,3.202,0,0,0,0,
14,4053.85,3949.74,3986.67,4005.13,4072.31,4185.13,3950.77,3977.95,4144.1,3995.38,4014.87,4018.46,4105.64,4053.33,2055,2039,3.216,0,0,0,0,
15,4042.56,3939.49,3972.82,4004.62,4056.92,4196.41,3949.74,3967.18,4122.56,3952.82,3997.44,3999.49,4078.46,4041.54,2053,2044,3.218,0,0,0,0,
16,4040.51,3929.74,3970.77,4005.13,4086.67,4196.92,3945.13,3951.79,4089.23,3924.1,3977.44,3992.82,4064.1,4034.36,2052,2047,3.227,0,0,0,0,
17,4050.26,3930.26,3985.64,4004.1,4071.28,4187.18,3949.23,3961.54,4118.97,3960,3993.33,4009.23,4082.05,4043.08,2052,2050,3.245,0,0,0,0,
18,4054.87,3930.26,3989.74,4006.67,4060,4197.95,3947.69,3969.74,4130.26,3964.1,3997.95,4003.59,4089.23,4040.51,2053,2050,3.253,0,0,0,0,
27,4051.28,3922.05,3968.21,3976.92,4041.54,4158.46,3917.95,3928.72,4095.9,3939.49,3988.72,3985.13,4087.69,4022.56,2048,2031,3.259,0,0,0,0,
28,4050.26,3922.56,3964.62,3978.46,4048.21,4164.62,3935.38,3935.9,4100,3935.38,3992.31,3986.15,4082.56,4013.85,2048,2025,3.274,0,0,0,0,
29,4041.03,3933.85,3960.51,3980.51,4047.18,4165.64,3949.23,3926.67,4087.69,3938.46,3994.87,3990.77,4086.15,4016.92,2051,2015,3.29,0,0,0,0,
30,4035.9,3936.41,3958.97,3975.9,4025.64,4163.59,3931.28,3910.26,4073.33,3925.13,3987.18,3977.95,4070.77,4007.18,2051,2010,3.297,0,0,0,0,
31,4043.08,3929.23,3957.95,3974.87,4018.97,4162.05,3924.62,3910.77,4073.85,3910.77,3993.33,3976.92,4064.62,3998.97,2052,2006,3.305,0,0,0,0,
32,4055.9,3930.26,3959.49,3979.49,4031.79,4156.92,3946.15,3926.15,4093.33,3944.62,4018.97,3998.97,4096.41,4020.51,2052,2005,3.312,0,0,0,0,
33,4057.95,3933.33,3960,3971.79,4040.51,4158.46,3946.67,3932.31,4109.74,3966.15,4030.26,4002.56,4106.67,4028.21,2054,2005,3.32,0,0,0,0,
34,4047.18,3923.08,3954.36,3957.95,4043.59,4158.46,3922.05,3925.64,4103.59,3935.38,4030.77,3987.69,4084.1,4006.15,2056,2006,3.327,0,0,0,0,
35,4049.74,3928.21,3954.36,3966.15,4045.13,4150.77,3924.62,3925.13,4088.21,3937.95,4036.92,3992.31,4082.56,4006.67,2059,2008,3.336,0,0,0,0,
36,4061.54,3946.67,3967.69,3978.46,4036.41,4149.23,3949.74,3936.92,4091.79,3964.1,4040.51,4008.21,4097.44,4025.64,2060,2007,3.343,0,0,0,0,
37,4054.87,3945.13,3972.82,3974.36,4022.05,4152.82,3952.31,3940.51,4098.46,3958.46,4035.38,4008.72,4092.82,4021.54,2061,2010,3.351,0,0,0,0,
38,4048.21,3929.23,3966.67,3970.26,4010.26,4148.21,3930.77,3931.28,4092.82,3936.92,4044.1,4010.77,4087.69,4014.36,2061,2011,3.359,0,0,0,0,
39,4054.36,3922.56,3967.18,3971.79,4021.54,4147.69,3920,3926.15,4081.03,3923.59,4054.36,4015.9,4087.69,4017.95,2060,2014,3.367,0,0,0,0,
40,4060.51,3928.21,3973.33,3972.31,4031.79,4144.1,3928.72,3934.36,4084.1,3936.92,4049.74,4013.85,4085.13,4020,2056,2016,3.375,0,0,0,0,
41,4060.51,3929.23,3976.92,3972.31,4023.08,4135.9,3928.21,3942.05,4098.46,3954.36,4053.85,4015.9,4091.28,4022.05,2055,2018,3.384,0,0,0,0,
42,4061.03,3930.26,3976.92,3975.38,4024.62,4143.08,3924.1,3946.67,4101.54,3949.23,4061.03,4023.59,4095.38,4024.62,2056,2019,3.39,0,0,0,0,
43,4068.21,3937.44,3981.54,3972.82,4033.33,4143.08,3937.95,3958.46,4093.33,3945.13,4057.44,4031.79,4095.38,4032.82,2056,2018,3.398,0,0,0,0,
44,4070.26,3940.51,3987.69,3972.82,4026.67,4131.28,3946.67,3957.44,4083.59,3957.44,4049.23,4033.33,4091.28,4042.56,2059,2020,3.406,0,0,0,0,
45,4064.62,3937.44,3986.67,3975.9,4017.44,4140,3932.31,3941.54,4075.9,3954.36,4047.18,4025.13,4084.1,4035.38,2060,2019,3.414,0,0,0,0,
46,4062.05,3930.77,3980.51,3971.28,4028.72,4151.79,3922.56,3937.95,4078.97,3936.92,4048.21,4022.05,4089.23,4025.13,2067,2022,3.422,0,0,0,0,
47,4064.1,3924.62,3975.9,3965.13,4028.21,4142.56,3935.9,3946.67,4089.23,3924.62,4051.79,4029.23,4094.36,4029.74,2070,2023,3.43,0,0,0,0,
48,4061.54,3922.05,3970.77,3963.08,4020,4144.62,3941.03,3940.51,4080,3914.36,4050.26,4027.18,4085.64,4027.69,2072,2023,3.438,0,0,0,0,
49,4066.67,3929.74,3978.46,3965.64,4030.77,4151.79,3935.38,3942.05,4078.46,3941.03,4049.23,4026.67,4090.77,4024.62,2073,2026,3.446,0,0,0,0,
50,4086.67,3945.64,4002.56,3973.85,4031.79,4141.03,3948.72,3969.23,4102.05,3992.31,4067.18,4044.62,4113.85,4047.18,2073,2028,3.453,0,0,0,0,
51,4085.64,3949.23,3998.97,3971.79,4028.72,4138.97,3949.74,3971.79,4105.64,3991.79,4071.79,4047.18,4116.41,4054.87,2072,2031,3.462,0,0,0,0,
52,4070.26,3942.56,3972.82,3959.49,4032.31,4159.49,3930.26,3950.26,4097.44,3960.51,4058.97,4032.82,4103.08,4035.9,2072,2033,3.469,0,0,0,0,
53,4070.77,3942.05,3969.74,3955.9,4025.64,4169.23,3930.77,3949.23,4092.31,3950.77,4058.97,4030.26,4091.79,4030.77,2072,2034,3.482,0,0,0,0,
54,4074.36,3939.49,3975.38,3956.92,4019.49,4159.49,3943.08,3962.05,4076.92,3953.33,4059.49,4026.67,4083.08,4031.79,2072,2032,3.487,0,0,0,0,
55,4073.33,3938.46,3976.41,3956.41,4024.62,4153.85,3942.56,3966.67,4073.33,3956.92,4054.87,4029.23,4092.82,4032.82,2072,2033,3.494,0,0,0,0,
56,4087.69,3951.79,3990.26,3968.21,4022.05,4146.67,3944.1,3974.87,4096.41,3959.49,4071.28,4057.44,4114.36,4051.79,2072,2034,3.501,0,0,0,0,
57,4077.95,3935.9,3982.56,3963.08,4011.28,4152.82,3932.82,3953.33,4077.95,3933.33,4052.31,4042.56,4090.77,4034.36,2070,2036,3.509,0,0,0,0,
58,4049.74,3908.72,3956.41,3940,4016.92,4167.18,3914.87,3921.03,4048.21,3931.79,4012.31,4000.51,4061.03,3997.44,2068,2038,3.517,0,0,0,0,
59,4077.95,3933.33,3981.03,3948.21,4028.21,4154.36,3938.97,3955.38,4094.36,3974.87,4062.56,4034.87,4094.87,4031.79,2068,2037,3.524,0,0,0,0,
60,4111.79,3960.51,4011.28,3965.64,4018.46,4137.95,3958.97,3988.21,4120,3970.26,4102.56,4079.49,4117.44,4067.18,2067,2039,3.532,0,0,0,0,
61,4092.82,3943.08,3992.31,3957.95,4001.03,4150.77,3935.38,3958.46,4075.9,3945.13,4043.08,4050.77,4093.33,4042.05,2065,2042,3.544,0,0,0,0,
62,4085.64,3937.44,3983.59,3953.33,4008.72,4158.97,3929.74,3947.69,4062.56,3968.21,4028.72,4038.97,4100.51,4038.97,2065,2041,3.548,0,0,0,0,
63,4092.82,3942.56,3988.21,3955.38,4027.69,4149.74,3941.03,3962.05,4076.92,3970.77,4066.15,4056.41,4109.74,4049.74,2066,2041,3.556,0,0,0,0,
64,4078.46,3930.26,3975.38,3946.15,4031.28,4153.33,3933.85,3950.77,4066.15,3933.85,4049.23,4044.62,4075.9,4028.72,2071,2043,3.57,0,0,0,0,
65,4072.82,3929.23,3968.21,3938.97,4010.26,4147.18,3929.74,3942.56,4061.03,3924.62,4030.26,4037.95,4068.21,4023.08,2072,2045,3.575,0,0,0,0,
66,4080.51,3936.92,3973.85,3946.67,3997.95,4132.82,3937.44,3955.38,4073.85,3938.46,4044.62,4048.21,4089.74,4040.51,2074,2048,3.593,0,0,0,0,
67,4093.33,3947.69,3989.74,3959.49,4025.13,4138.46,3951.28,3974.36,4087.69,3969.23,4054.36,4058.97,4101.03,4054.87,2075,2050,3.601,0,0,0,0,
68,4105.64,3955.38,4006.15,3957.95,4018.97,4140,3958.97,3989.23,4090.77,3992.82,4064.62,4069.74,4107.69,4057.95,2074,2050,3.616,0,0,0,0,
69,4075.38,3922.56,3975.9,3938.46,3973.85,4142.56,3935.9,3961.54,4060.51,3930.77,4041.03,4041.03,4080,4026.15,2077,2050,3.619,0,0,0,0,
70,4056.41,3904.62,3950.77,3935.38,3997.95,4154.36,3923.08,3943.08,4051.28,3887.69,4018.46,4014.87,4055.38,4008.21,2076,2050,3.627,0,0,0,0,
71,4099.49,3952.31,3995.38,3953.85,4030.26,4142.05,3957.95,3987.69,4097.95,3967.18,4060.51,4061.03,4097.95,4050.77,2076,2050,3.638,0,0,0,0,
72,4111.79,3965.13,4013.85,3954.87,3989.23,4132.31,3967.18,4001.03,4105.13,4008.21,4073.85,4085.13,4117.95,4066.67,2074,2049,3.643,0,0,0,0,
73,4067.69,3919.49,3967.69,3937.44,3983.59,4150.77,3933.85,3950.26,4051.28,3917.44,4026.67,4035.38,4069.23,4022.56,2073,2048,3.657,0,0,0,0,
74,4070.77,3927.18,3968.21,3936.41,4024.1,4148.72,3939.49,3949.74,4049.23,3896.41,4033.85,4031.79,4070.26,4016.92,2073,2049,3.659,0,0,0,0,
75,4111.79,3965.13,4012.82,3953.85,4023.59,4138.97,3966.15,3989.74,4091.79,3981.54,4073.85,4075.38,4112.82,4056.92,2070,2052,3.666,0,0,0,0,
76,4112.31,3952.82,4012.82,3959.49,4012.82,4148.72,3962.05,3985.13,4090.26,3986.15,4063.08,4076.41,4106.67,4073.85,2069,2056,3.682,0,0,0,0,
77,4092.82,3934.36,3989.74,3945.13,4009.74,4143.59,3951.28,3967.69,4067.18,3930.77,4044.1,4054.87,4083.08,4056.92,2067,2059,3.691,0,0,0,0,
77,4092.82,3934.36,3989.74,3945.13,4009.74,4143.59,3951.28,3967.69,4067.18,3930.77,4044.1,4054.87,4083.08,4056.92,2067,2059,3.696,0,0,0,0,
77,4092.82,3934.36,3989.74,3945.13,4009.74,4143.59,3951.28,3967.69,4067.18,3930.77,4044.1,4054.87,4083.08,4056.92,2067,2059,3.701,0,0,0,0,
78,4091.79,3946.67,3992.82,3937.95,3994.87,4126.15,3956.41,3971.79,4069.23,3935.38,4054.36,4059.49,4089.23,4040.51,2065,2064,3.707,0,0,0,0,
79,4094.36,3947.69,3999.49,3944.1,3977.44,4125.13,3961.54,3977.44,4076.92,3955.9,4063.59,4065.64,4100,4044.62,2063,2067,3.715,0,0,0,0,
80,4094.87,3937.95,3995.9,3943.59,3969.23,4126.67,3953.33,3975.38,4082.56,3947.18,4060,4057.44,4093.85,4053.85,2063,2069,3.722,0,0,0,0,
81,4100,3950.26,3994.87,3938.97,4010.77,4137.44,3951.79,3978.46,4092.82,3951.28,4057.44,4054.36,4090.77,4049.74,2065,2070,3.73,0,0,0,0,
82,4097.44,3960.51,3994.87,3942.05,4046.67,4163.59,3967.69,3985.13,4083.59,3956.92,4056.92,4054.36,4094.36,4038.97,2068,2066,3.738,0,0,0,0,
83,4083.59,3944.62,3985.13,3939.49,3976.41,4146.15,3963.08,3980.51,4072.31,3928.21,4048.21,4043.59,4087.69,4028.21,2069,2065,3.749,0,0,0,0,
84,4091.28,3940.51,3986.67,3936.92,3950.26,4119.49,3941.54,3979.49,4086.15,3927.69,4046.67,4043.59,4081.03,4032.82,2066,2063,3.753,0,0,0,0,
85,4110.77,3958.97,4006.15,3946.15,4049.74,4144.62,3948.21,3988.72,4092.82,3972.82,4058.46,4066.67,4096.41,4057.44,2068,2064,3.761,0,0,0,0,
86,4109.23,3966.67,4012.82,3943.08,4072.31,4162.56,3967.18,3994.36,4091.79,3992.82,4065.13,4075.38,4112.82,4063.59,2068,2056,3.769,0,0,0,0,
87,4097.95,3955.38,3998.46,3930.77,3997.44,4145.13,3964.62,3992.31,4093.85,3964.62,4057.95,4058.46,4098.97,4046.67,2067,2055,3.777,0,0,0,0,
88,4089.23,3941.03,3985.64,3927.69,3984.62,4147.69,3951.79,3981.03,4083.08,3941.03,4046.15,4047.69,4080.51,4038.97,2067,2052,3.785,0,0,0,0,
89,4092.31,3944.62,3990.77,3931.28,4011.28,4156.41,3949.74,3974.87,4062.56,3935.38,4049.23,4054.36,4082.56,4044.62,2066,2050,3.792,0,0,0,0,
90,4106.67,3967.69,4001.03,3938.97,4015.38,4134.36,3957.44,3989.74,4063.59,3952.31,4062.05,4063.08,4095.9,4046.67,2066,2052,3.8,0,0,0,0,
91,4104.1,3969.23,3995.38,3938.97,4015.38,4126.67,3954.36,4000,4072.82,3972.82,4052.82,4057.44,4096.41,4038.97,2066,2057,3.808,0,0,0,0,
92,4078.97,3945.64,3977.44,3927.18,4006.67,4147.18,3941.54,3980.51,4066.67,3936.41,4031.28,4041.03,4079.49,4028.72,2066,2059,3.816,0,0,0,0,
93,4086.15,3956.41,3989.23,3930.77,4014.87,4147.69,3957.44,3992.31,4075.38,3925.13,4047.18,4054.36,4086.67,4043.59,2066,2061,3.825,0,0,0,0,
94,4118.46,3983.59,4021.03,3946.67,4028.21,4142.05,3984.62,4027.69,4095.9,3984.62,4071.79,4088.21,4109.74,4063.59,2067,2058,3.832,0,0,0,0,
95,4106.67,3961.03,4010.26,3931.79,3998.97,4150.26,3965.13,4008.72,4077.44,3976.92,4050.77,4073.85,4093.33,4044.62,2066,2053,3.84,0,0,0,0,
96,4088.21,3949.23,3994.87,3917.95,3991.79,4148.72,3946.15,3988.72,4062.56,3930.26,4037.95,4047.18,4076.41,4035.9,2065,2051,3.861,0,0,0,0,
97,4113.33,3986.15,4021.03,3942.05,4035.9,4142.56,3967.18,4018.46,4088.21,3962.56,4063.59,4070.26,4103.59,4065.13,2061,2048,3.863,0,0,0,0,
98,4126.15,3990.77,4032.31,3950.26,4038.97,4146.67,3977.95,4027.18,4093.33,3978.97,4070.77,4087.69,4112.31,4070.77,2060,2045,3.872,0,0,0,0,
99,4104.1,3954.87,4013.85,3932.82,3994.87,4144.62,3958.97,4002.05,4080.51,3935.38,4048.21,4071.79,4086.67,4051.28,2058,2045,3.891,0,0,0,0,
100,4103.59,3956.92,4017.95,3936.41,3981.03,4136.92,3953.33,4000,4091.79,3949.74,4045.64,4073.33,4086.67,4058.97,2054,2044,3.896,0,0,0,0,
109,4108.72,3983.08,4023.59,3945.64,4005.13,4125.13,3957.95,4014.36,4086.67,3970.26,4057.44,4071.28,4114.87,4056.92,2055,2040,3.903,0,0,0,0,
110,4115.38,3984.1,4022.05,3942.56,4019.49,4122.05,3952.82,4005.13,4080,3964.1,4050.77,4073.85,4105.64,4053.85,2056,2039,3.91,0,0,0,0,
111,4099.49,3962.56,4005.64,3945.64,3981.54,4125.13,3960,3996.92,4072.82,3936.92,4026.15,4057.95,4064.1,4035.9,2057,2040,3.919,0,0,0,0,
112,4084.1,3944.1,3991.79,3943.08,3992.31,4136.92,3961.03,3993.85,4070.26,3942.05,4016.92,4040,4066.15,4022.56,2056,2041,3.927,0,0,0,0,
113,4100.51,3957.44,4003.59,3944.62,4047.18,4145.64,3970.26,4004.1,4092.31,3992.31,4045.13,4057.44,4126.67,4057.44,2055,2047,3.934,0,0,0,0,
114,4113.33,3958.97,4017.44,3945.13,4035.9,4138.97,3978.97,4019.49,4113.33,4008.21,4073.85,4083.08,4158.97,4091.28,2055,2047,3.942,0,0,0,0,
115,4108.21,3939.49,4015.38,3942.56,4002.56,4124.62,3970.26,4018.46,4100.51,3992.82,4079.49,4088.72,4155.38,4093.85,2054,2052,3.951,0,0,0,0,
116,4106.67,3933.85,4013.33,3940.51,3999.49,4122.05,3972.31,4012.31,4084.1,3976.92,4073.85,4085.13,4156.92,4093.33,2056,2054,3.958,0,0,0,0,
117,4100,3930.26,4010.77,3936.41,3991.79,4130.77,3984.62,4015.38,4078.97,3941.03,4050.77,4078.46,4140.51,4078.97,2057,2054,3.966,0,0,0,0,
118,4086.15,3918.46,4000,3935.9,3995.38,4137.95,3973.33,4009.74,4061.54,3928.72,4030.26,4065.13,4117.95,4051.79,2057,2051,3.974,0,0,0,0,
119,4088.72,3923.59,4003.08,3942.56,4020,4143.59,3972.31,4013.33,4077.95,3980.51,4043.59,4068.21,4129.74,4063.59,2056,2050,3.983,0,0,0,0,
120,4094.87,3929.23,4009.23,3943.08,4014.87,4137.95,3996.41,4040.51,4113.33,3999.49,4054.36,4081.54,4132.82,4083.08,2056,2048,3.989,0,0,0,0,
121,4086.15,3914.36,4003.08,3937.44,3980.51,4115.9,3990.77,4046.67,4099.49,3964.1,4042.05,4078.46,4117.95,4065.13,2054,2048,3.997,0,0,0,0,
122,4081.03,3910.77,4001.03,3938.46,3996.92,4114.36,3963.08,4023.59,4073.33,3955.9,4035.38,4072.31,4124.1,4056.41,2052,2050,4.005,0,0,0,0,
123,4091.79,3931.28,4012.82,3940,4049.23,4140.51,3975.38,4027.18,4081.54,3983.08,4037.44,4082.05,4140.51,4082.05,2052,2053,4.013,0,0,0,0,
124,4105.13,3944.62,4026.67,3941.54,4044.62,4138.46,4008.21,4056.92,4098.97,4014.87,4034.36,4095.38,4145.13,4095.9,2052,2056,4.021,0,0,0,0,
125,4096.41,3928.72,4016.92,3942.05,4000.51,4119.49,3998.46,4049.23,4083.08,3992.82,4011.28,4084.1,4131.28,4070.26,2053,2057,4.029,0,0,0,0,
126,4074.87,3916.92,4000.51,3939.49,3997.44,4123.08,3976.92,4026.15,4058.97,3936.41,3987.18,4076.92,4113.33,4056.92,2052,2058,4.037,0,0,0,0,
127,4078.97,3929.23,4006.67,3940,4005.64,4126.67,3987.69,4037.95,4069.23,3933.33,4000.51,4091.28,4115.9,4070.77,2053,2060,4.045,0,0,0,0,
128,4091.79,3933.33,4014.36,3942.05,3996.92,4119.49,4004.1,4050.77,4094.36,3973.33,4020.51,4089.23,4125.13,4071.79,2053,2059,4.056,0,0,0,0,
0,4082.56,3926.15,4003.59,3940,4017.95,4121.03,3998.46,4048.21,4095.38,3998.97,4014.36,4074.36,4122.56,4065.64,2054,2056,4.06,0,0,0,0,
1,4070.77,3927.18,3998.97,3937.95,4009.23,4121.03,3986.15,4047.18,4096.41,4004.62,4014.87,4078.97,4120.51,4068.72,2055,2053,4.069,0,0,0,0,
2,4073.85,3930.77,4006.15,3942.05,3983.59,4118.97,3991.79,4048.72,4106.15,3995.9,4027.18,4090.77,4125.13,4068.21,2054,2049,4.076,0,0,0,0,
3,4074.36,3927.18,4005.13,3941.54,4023.08,4129.23,4000.51,4041.54,4082.56,3964.62,4018.97,4080,4120,4060.51,2054,2049,4.084,0,0,0,0,
4,4086.15,3935.38,4012.31,3942.05,4063.08,4134.36,4001.03,4044.62,4068.72,3970.26,4014.36,4084.1,4122.56,4073.33,2054,2048,4.092,0,0,0,0,
5,4110.26,3962.56,4034.36,3955.9,4042.56,4121.54,4005.64,4065.64,4098.97,4009.23,4031.79,4112.31,4141.54,4098.97,2056,2047,4.1,0,0,0,0,
6,4103.59,3966.67,4033.33,3958.97,4015.9,4120.51,4006.15,4060.51,4110.26,3993.85,4029.23,4110.26,4133.85,4094.36,2058,2040,4.108,0,0,0,0,
7,4088.72,3948.21,4020,3946.67,4004.1,4130.77,3998.46,4041.54,4095.9,3982.56,4018.46,4088.72,4113.33,4079.49,2059,2037,4.115,0,0,0,0,
8,4090.77,3944.62,4020.51,3938.97,3991.79,4123.08,3992.82,4040,4081.54,4000,4021.54,4084.1,4110.77,4073.33,2061,2037,4.123,0,0,0,0,
9,4098.46,3957.44,4031.28,3945.13,4022.05,4117.95,3997.95,4047.18,4072.31,3974.36,4031.28,4094.87,4121.54,4077.44,2062,2039,4.131,0,0,0,0,
10,4108.72,3966.67,4044.1,3956.41,4057.95,4127.18,4009.23,4063.08,4088.21,3968.21,4049.74,4112.82,4134.87,4097.95,2062,2040,4.139,0,0,0,0,
11,4111.28,3965.13,4048.21,3963.08,4029.74,4126.15,4016.92,4076.41,4109.74,4017.44,4062.05,4123.08,4137.44,4110.26,2062,2044,4.148,0,0,0,0,
12,4097.95,3961.03,4035.9,3953.85,3997.95,4121.54,4009.23,4063.59,4103.08,4034.36,4053.85,4109.23,4126.15,4087.69,2060,2047,4.155,0,0,0,0,
13,4090.26,3954.36,4024.62,3942.05,4005.13,4119.49,3993.85,4048.21,4088.21,3995.9,4041.03,4089.74,4114.87,4072.31,2060,2049,4.163,0,0,0,0,
14,4091.28,3946.15,4022.56,3942.56,4013.85,4116.92,3991.28,4049.23,4076.92,3968.72,4032.82,4083.59,4106.67,4078.97,2060,2047,4.171,0,0,0,0,
15,4074.36,3939.49,4010.26,3941.54,4014.36,4121.03,3986.15,4035.9,4055.38,3958.97,4017.95,4072.31,4089.74,4062.56,2060,2046,4.18,0,0,0,0,
16,4065.13,3940.51,3999.49,3938.97,4020,4118.46,3977.44,4031.79,4056.41,3976.41,4013.85,4062.56,4088.21,4041.03,2061,2046,4.187,0,0,0,0,
17,4082.05,3956.41,4013.33,3945.13,4013.85,4101.54,3993.33,4068.21,4089.23,4012.82,4033.85,4078.97,4109.74,4057.44,2062,2044,4.194,0,0,0,0,
18,4078.46,3947.18,4012.82,3941.54,3988.72,4105.13,3996.41,4063.59,4077.44,3967.69,4031.28,4080.51,4100.51,4061.03,2063,2042,4.202,0,0,0,0,
19,4057.95,3924.1,3995.38,3933.85,3989.74,4125.64,3976.41,4027.18,4053.33,3931.28,4016.41,4061.03,4078.97,4044.62,2062,2033,4.21,0,0,0,0,
20,4073.85,3942.05,4009.74,3945.13,4022.56,4118.46,3984.1,4051.28,4083.08,4005.13,4033.33,4074.87,4094.87,4062.05,2064,2032,4.218,0,0,0,0,
21,4097.44,3971.79,4033.33,3953.85,4036.92,4105.64,4005.64,4086.15,4098.46,4040,4056.41,4100.51,4118.46,4082.05,2065,2031,4.226,0,0,0,0,
22,4080.51,3956.92,4019.49,3941.54,4005.13,4108.72,3990.26,4060,4065.64,3977.95,4042.05,4084.1,4105.13,4061.03,2067,2036,4.235,0,0,0,0,
23,4070.26,3939.49,4008.21,3938.97,3978.97,4106.67,3975.38,4038.46,4051.79,3953.85,4030.77,4065.64,4091.28,4047.69,2067,2038,4.241,0,0,0,0,
24,4086.67,3958.46,4022.05,3948.72,4014.36,4105.64,3990.77,4064.1,4074.87,3983.59,4051.28,4083.59,4101.03,4065.64,2066,2039,4.25,0,0,0,0,
25,4077.44,3958.46,4014.87,3943.08,4030.77,4109.23,3992.31,4069.74,4075.9,3983.08,4048.21,4086.15,4094.87,4057.95,2066,2040,4.258,0,0,0,0,
26,4063.59,3942.05,4006.67,3936.41,3993.85,4100,3982.56,4053.33,4063.59,3997.44,4031.28,4073.33,4088.72,4045.64,2066,2034,4.266,0,0,0,0,
27,4079.49,3958.46,4024.1,3942.05,3993.33,4096.92,3988.21,4064.62,4073.33,4016.41,4040,4083.08,4103.59,4068.21,2065,2030,4.274,0,0,0,0,
28,4088.72,3974.36,4031.28,3943.08,4031.28,4111.79,3991.28,4075.9,4076.41,3973.85,4052.31,4093.85,4108.72,4076.41,2068,2025,4.282,0,0,0,0,
29,4083.59,3964.62,4025.13,3940.51,4026.15,4116.92,3985.13,4055.38,4066.15,3955.38,4051.28,4093.85,4098.97,4062.56,2067,2024,4.289,0,0,0,0,
30,4090.77,3964.62,4030.77,3943.08,4012.82,4111.28,3988.21,4046.67,4072.31,4003.59,4058.46,4102.05,4103.59,4072.31,2067,2031,4.297,0,0,0,0,
31,4095.38,3983.08,4043.08,3946.67,4036.92,4108.72,4002.05,4072.82,4088.72,4036.41,4075.38,4113.33,4117.44,4090.77,2065,2034,4.305,0,0,0,0,
32,4090.26,3982.05,4041.03,3946.67,4028.21,4105.64,4005.13,4077.44,4077.95,4009.23,4068.21,4105.64,4109.23,4076.92,2064,2037,4.312,0,0,0,0,
33,4095.38,3973.33,4033.85,3944.62,3993.33,4104.62,3996.41,4061.54,4076.41,3997.44,4063.08,4099.49,4103.59,4069.23,2057,2037,4.32,0,0,0,0,
34,4086.15,3969.74,4026.15,3940,3991.79,4109.74,3988.72,4067.18,4093.85,4016.92,4073.85,4098.46,4109.74,4078.46,2053,2034,4.328,0,0,0,0,
35,4065.13,3957.44,4019.49,3936.92,4016.41,4114.36,3993.33,4075.9,4082.05,3989.23,4066.15,4083.08,4094.36,4063.08,2049,2027,4.337,0,0,0,0,
36,4061.54,3952.31,4016.92,3934.36,4022.05,4110.26,3995.9,4060.51,4053.33,3963.59,4039.49,4067.69,4067.69,4033.85,2048,2024,4.344,0,0,0,0,
37,4070.26,3963.08,4018.97,3928.21,4016.41,4107.18,3988.72,4051.28,4050.77,3990.77,4040.51,4068.72,4073.85,4034.36,2044,2024,4.352,0,0,0,0,
38,4075.9,3973.85,4026.67,3928.21,4015.38,4107.69,3989.74,4062.05,4062.56,4003.59,4067.18,4078.46,4095.9,4060.51,2043,2027,4.37,0,0,0,0,
39,4077.44,3973.33,4029.23,3937.44,4014.87,4103.08,3992.82,4062.56,4061.03,3986.15,4068.21,4077.95,4094.36,4067.69,2042,2032,4.371,0,0,0,0,
40,4078.46,3972.82,4023.59,3941.03,4026.15,4098.46,3986.15,4062.56,4057.95,3996.41,4056.41,4076.41,4090.26,4052.31,2042,2034,4.376,0,0,0,0,
41,4074.87,3973.85,4019.49,3936.92,4015.38,4092.31,3985.13,4079.49,4062.56,4011.28,4056.92,4078.46,4096.92,4044.1,2042,2032,4.384,0,0,0,0,
42,4070.77,3973.33,4022.56,3935.9,3996.41,4091.28,3991.79,4095.9,4065.64,3992.82,4060,4073.85,4094.36,4046.67,2044,2028,4.391,0,0,0,0,
43,4066.67,3975.38,4022.05,3935.9,4017.95,4104.62,3990.26,4091.28,4056.92,3976.92,4056.41,4068.21,4077.44,4041.03,2046,2026,4.399,0,0,0,0,
44,4061.03,3973.85,4017.44,3930.77,4016.92,4110.26,3989.23,4084.1,4052.82,3978.97,4057.95,4071.28,4074.87,4032.31,2050,2024,4.407,0,0,0,0,
45,4060,3969.23,4022.05,3928.21,3982.56,4092.31,3991.28,4108.21,4072.82,3998.46,4076.41,4087.69,4095.9,4042.05,2050,2023,4.415,0,0,0,0,
46,4063.08,3967.69,4022.05,3929.23,4002.56,4084.62,3981.54,4125.13,4076.41,4007.69,4080,4090.77,4094.36,4050.26,2054,2023,4.423,0,0,0,0,
47,4058.97,3970.77,4014.87,3926.67,4022.05,4086.15,3971.28,4106.15,4056.92,3991.28,4060.51,4075.38,4076.41,4041.03,2056,2026,4.432,0,0,0,0,
48,4051.79,3977.95,4014.87,3925.13,3988.21,4071.28,3974.87,4092.82,4056.41,3986.67,4060,4071.28,4089.74,4037.44,2060,2028,4.439,0,0,0,0,
49,4056.41,3981.54,4020.51,3927.18,4008.21,4071.79,3980.51,4106.15,4065.64,4003.59,4072.31,4081.54,4105.64,4043.59,2059,2030,4.448,0,0,0,0,
50,4061.03,3976.41,4018.46,3927.18,4034.36,4081.54,3980,4109.23,4062.05,4008.21,4068.72,4080,4097.95,4042.05,2059,2033,4.462,0,0,0,0,
51,4061.03,3975.38,4017.95,3926.67,4009.23,4079.49,3984.62,4108.21,4067.69,4006.15,4072.82,4073.85,4098.46,4039.49,2059,2033,4.465,0,0,0,0,
52,4066.67,3978.97,4023.59,3928.21,4002.05,4080,3990.77,4110.77,4076.92,4018.97,4083.59,4079.49,4103.59,4044.62,2060,2035,4.473,0,0,0,0,
53,4068.21,3978.46,4023.59,3925.13,3992.82,4075.9,3988.72,4100.51,4065.64,4017.95,4079.49,4081.54,4098.97,4048.21,2064,2033,4.48,0,0,0,0,
54,4062.56,3980,4021.03,3921.03,3984.62,4074.87,3985.64,4095.9,4057.95,3995.9,4070.26,4076.41,4091.79,4042.56,2066,2031,4.487,0,0,0,0,
55,4071.79,3994.87,4027.69,3923.08,4032.31,4095.9,3987.69,4110.26,4056.92,3984.62,4070.77,4079.49,4089.23,4041.03,2068,2029,4.498,0,0,0,0,
56,4096.92,4016.41,4049.23,3931.79,4059.49,4098.46,3997.44,4127.18,4063.59,3996.41,4088.21,4098.97,4105.13,4067.69,2068,2029,4.508,0,0,0,0,
57,4098.97,4014.87,4050.26,3928.72,4024.1,4075.38,3995.38,4127.18,4074.87,4021.54,4095.38,4101.03,4116.41,4083.08,2066,2032,4.512,0,0,0,0,
57,4098.97,4014.87,4050.26,3928.72,4024.1,4075.38,3995.38,4127.18,4074.87,4021.54,4095.38,4101.03,4116.41,4083.08,2066,2032,4.518,0,0,0,0,
58,4071.79,3988.21,4018.97,3912.82,4012.82,4082.05,3973.85,4093.33,4055.38,4024.1,4064.1,4067.69,4090.77,4047.69,2064,2036,4.527,0,0,0,0,
59,4070.77,3991.79,4019.49,3914.36,4013.85,4089.74,3973.33,4074.36,4038.97,3992.31,4058.46,4066.67,4088.21,4035.38,2061,2037,4.533,0,0,0,0,
60,4095.38,4017.44,4047.69,3930.26,3999.49,4075.38,3997.44,4097.44,4069.23,3982.56,4098.97,4106.15,4121.54,4071.79,2059,2039,4.542,0,0,0,0,
61,4092.31,4011.28,4043.08,3927.69,4010.77,4080,4004.1,4100.51,4087.69,4017.95,4096.41,4107.18,4115.38,4078.97,2059,2038,4.556,0,0,0,0,
62,4086.67,4011.28,4033.33,3920,4017.95,4083.59,4000.51,4086.15,4066.15,4027.69,4072.31,4085.64,4097.95,4069.23,2059,2033,4.559,0,0,0,0,
63,4100,4030.26,4047.18,3923.59,4004.62,4070.77,4007.69,4089.74,4053.33,3987.69,4082.05,4092.31,4106.67,4078.46,2061,2031,4.565,0,0,0,0,
64,4097.95,4018.46,4043.08,3919.49,4033.33,4084.1,4002.05,4082.05,4059.49,3991.28,4082.56,4091.28,4102.05,4063.59,2064,2035,4.572,0,0,0,0,
65,4091.28,4006.15,4030.26,3910.77,4057.95,4093.85,3986.15,4071.28,4064.62,4026.15,4072.82,4077.44,4091.28,4050.77,2065,2035,4.581,0,0,0,0,
66,4104.1,4014.36,4038.97,3909.23,4028.72,4071.79,3995.9,4097.44,4072.82,4023.59,4091.79,4094.36,4111.79,4075.38,2064,2039,4.589,0,0,0,0,
67,4110.77,4012.31,4051.28,3910.26,4018.97,4062.56,4014.36,4118.97,4082.05,4027.69,4110.77,4116.92,4134.36,4085.64,2063,2044,4.602,0,0,0,0,
68,4106.67,4020.51,4049.23,3911.28,4041.54,4071.79,4011.79,4090.77,4080.51,4047.69,4095.9,4104.62,4123.59,4066.67,2060,2050,4.605,0,0,0,0,
69,4108.72,4043.59,4045.64,3903.08,4032.31,4076.41,4007.69,4067.18,4071.79,4026.15,4079.49,4083.59,4093.33,4054.36,2059,2053,4.612,0,0,0,0,
70,4106.67,4051.28,4045.13,3894.87,4004.1,4072.31,4012.82,4073.33,4064.1,3990.26,4073.85,4074.87,4067.18,4048.21,2058,2054,4.62,0,0,0,0,
71,4095.38,4058.46,4037.95,3893.33,4004.62,4065.13,4007.69,4073.33,4053.85,3976.41,4056.41,4061.54,4051.28,4027.18,2057,2055,4.631,0,0,0,0,
72,4088.21,4073.33,4028.21,3888.21,4015.38,4060.51,3992.31,4058.97,4047.18,3974.87,4039.49,4046.67,4036.41,4006.15,2057,2052,4.635,0,0,0,0,
73,4084.62,4065.64,4024.62,3876.92,4024.62,4062.05,3989.74,4054.87,4046.67,3978.46,4037.95,4046.67,4024.1,3995.9,2059,2049,4.643,0,0,0,0,
74,4076.92,4049.23,4020.51,3868.72,4007.18,4052.31,3991.28,4046.67,4032.82,3948.72,4025.13,4043.59,4022.05,3996.92,2062,2049,4.651,0,0,0,0,
75,4068.72,4050.77,4015.9,3863.59,3971.79,4043.08,3986.67,4032.31,4026.67,3933.85,4016.41,4037.44,4030.77,4001.03,2063,2051,4.659,0,0,0,0,
76,4071.28,4058.46,4029.23,3868.21,4013.85,4064.1,3994.36,4041.03,4049.23,3992.31,4045.13,4049.74,4035.38,3995.38,2063,2054,4.667,0,0,0,0,
77,4089.23,4064.62,4046.67,3880,4084.62,4077.95,4007.18,4058.97,4062.05,4029.74,4065.64,4065.64,4037.95,4003.59,2060,2057,4.676,0,0,0,0,
78,4097.95,4063.59,4045.13,3880.51,4070.77,4066.15,4007.69,4069.23,4057.95,4010.77,4056.92,4064.62,4056.92,4021.54,2059,2058,4.683,0,0,0,0,
79,4084.62,4056.92,4042.56,3875.9,4004.62,4055.38,4003.59,4075.38,4061.03,4003.59,4059.49,4061.03,4073.85,4024.1,2057,2057,4.692,0,0,0,0,
80,4078.46,4055.9,4046.67,3880.51,3999.49,4060,4010.26,4072.82,4061.03,4009.23,4067.18,4061.54,4065.64,4015.9,2057,2055,4.709,0,0,0,0,
81,4083.08,4053.85,4040.51,3881.03,4030.77,4070.26,4017.44,4060,4051.28,3994.87,4057.44,4055.9,4052.82,4011.79,2057,2052,4.71,0,0,0,0,
82,4073.33,4046.67,4028.21,3877.95,4031.79,4066.67,4017.44,4058.97,4056.92,3995.9,4048.21,4048.72,4052.82,4002.05,2057,2051,4.715,0,0,0,0,
83,4075.9,4054.87,4041.54,3889.23,4044.1,4063.59,4024.1,4079.49,4076.41,4017.44,4064.62,4061.54,4066.67,4003.08,2057,2049,4.723,0,0,0,0,
84,4091.28,4066.67,4056.92,3892.31,4040,4061.54,4025.13,4081.54,4078.46,4009.23,4080.51,4077.44,4076.92,4022.05,2059,2048,4.731,0,0,0,0,
85,4079.49,4053.85,4041.03,3877.44,4011.28,4056.41,4006.67,4056.92,4062.05,3986.15,4071.79,4064.1,4062.05,4016.41,2060,2051,4.739,0,0,0,0,
86,4068.21,4047.18,4033.85,3878.97,4007.18,4056.92,4001.54,4056.41,4067.69,4009.74,4070.77,4057.95,4058.97,4010.26,2061,2048,4.748,0,0,0,0,
87,4093.33,4061.54,4054.36,3900,4041.03,4066.15,4022.05,4081.54,4092.31,4049.23,4093.85,4084.62,4087.69,4027.18,2062,2048,4.757,0,0,0,0,
88,4112.31,4072.31,4064.1,3902.56,4057.44,4070.77,4034.36,4083.08,4091.79,4046.15,4104.62,4101.54,4098.46,4041.54,2062,2051,4.763,0,0,0,0,
89,4104.1,4072.31,4060.51,3895.38,4036.92,4061.03,4029.23,4075.9,4079.49,4039.49,4102.05,4098.46,4092.82,4051.79,2062,2053,4.769,0,0,0,0,
90,4089.74,4063.59,4051.79,3901.54,4041.54,4059.49,4022.05,4068.21,4067.18,4037.44,4091.79,4086.15,4088.21,4045.13,2061,2056,4.785,0,0,0,0,
91,4085.64,4062.05,4045.13,3908.21,4057.44,4059.49,4018.46,4060.51,4061.03,4017.95,4083.59,4077.44,4082.56,4027.69,2062,2057,4.786,0,0,0,0,
92,4102.05,4078.97,4058.97,3911.79,4038.46,4054.87,4026.67,4081.03,4082.05,4020,4104.1,4091.28,4091.28,4042.56,2063,2056,4.793,0,0,0,0,
93,4102.05,4077.44,4062.05,3905.13,4005.64,4057.44,4032.31,4090.77,4083.59,4020.51,4107.69,4093.33,4086.67,4052.31,2065,2058,4.81,0,0,0,0,
94,4080.51,4057.95,4043.08,3895.38,4025.64,4057.95,4020.51,4064.1,4057.44,4012.31,4082.05,4071.28,4070.26,4027.18,2066,2056,4.821,0,0,0,0,
95,4090.26,4067.69,4053.33,3903.59,4059.49,4058.97,4026.15,4069.74,4072.31,4047.69,4093.33,4080.51,4092.31,4039.49,2066,2058,4.84,0,0,0,0,
95,4090.26,4067.69,4053.33,3903.59,4059.49,4058.97,4026.15,4069.74,4072.31,4047.69,4093.33,4080.51,4092.31,4039.49,2066,2058,4.841,0,0,0,0,
96,4111.28,4083.59,4070.77,3914.87,4050.26,4074.36,4045.13,4102.56,4101.03,4057.95,4118.97,4104.1,4110.77,4068.21,2067,2058,4.848,0,0,0,0,
97,4101.03,4076.92,4062.05,3913.33,4046.15,4084.62,4044.62,4108.72,4091.28,4025.64,4110.26,4096.92,4089.23,4054.36,2066,2059,4.857,0,0,0,0,
98,4090.26,4071.79,4060.51,3911.28,4056.92,4073.33,4042.56,4112.82,4085.64,4042.56,4104.62,4093.85,4090.77,4050.26,2067,2057,4.864,0,0,0,0,
99,4099.49,4073.85,4069.23,3911.28,4058.97,4078.46,4052.31,4122.05,4096.92,4066.67,4110.26,4098.97,4103.08,4065.13,2067,2054,4.883,0,0,0,0,
100,4109.23,4076.92,4067.69,3906.67,4054.36,4084.1,4051.79,4131.28,4093.85,4043.08,4113.85,4102.56,4098.97,4065.13,2066,2053,4.89,0,0,0,0,
101,4106.67,4076.92,4061.03,3908.72,4043.59,4060,4036.92,4135.9,4089.23,4046.15,4118.97,4105.64,4100,4063.59,2065,2051,4.897,0,0,0,0,
102,4089.74,4062.05,4051.28,3908.72,4040,4056.41,4029.23,4110.26,4102.56,4081.54,4114.87,4097.95,4096.92,4060.51,2065,2051,4.904,0,0,0,0,
103,4085.64,4056.41,4055.9,3904.62,4063.59,4082.56,4040,4088.72,4112.82,4075.9,4113.85,4098.97,4090.77,4056.92,2066,2052,4.912,0,0,0,0,
104,4108.21,4085.64,4075.9,3917.44,4076.41,4083.59,4056.41,4105.64,4100,4056.41,4128.72,4115.38,4107.18,4074.36,2067,2052,4.924,0,0,0,0,
105,4113.85,4103.08,4075.9,3925.13,4054.36,4071.79,4051.28,4115.9,4082.05,4049.74,4128.72,4115.38,4110.26,4085.13,2067,2052,4.928,0,0,0,0,
106,4088.72,4074.87,4057.95,3910.26,4048.21,4075.38,4034.87,4093.33,4078.97,4030.26,4108.21,4098.97,4075.38,4057.95,2069,2052,4.937,0,0,0,0,
107,4093.33,4063.59,4069.23,3909.23,4048.21,4074.36,4051.28,4101.54,4103.08,4053.85,4125.13,4109.74,4083.08,4059.49,2069,2053,4.944,0,0,0,0,
108,4121.54,4090.77,4095.9,3928.21,4042.56,4080,4071.79,4130.26,4118.97,4101.03,4156.92,4127.18,4126.15,4092.82,2070,2056,4.952,0,0,0,0,
109,4112.82,4091.79,4083.59,3929.23,4062.05,4082.05,4046.15,4121.54,4101.03,4091.28,4139.49,4117.44,4123.08,4085.64,2069,2056,4.96,0,0,0,0,
110,4093.85,4074.87,4064.1,3920,4065.64,4065.13,4037.44,4101.54,4094.36,4058.46,4118.97,4112.31,4104.62,4068.21,2068,2058,4.968,0,0,0,0,
111,4108.72,4086.67,4085.64,3926.67,4034.36,4073.33,4074.36,4108.21,4113.85,4058.46,4138.97,4128.21,4120.51,4086.15,2067,2060,4.975,0,0,0,0,
112,4112.82,4092.31,4100,3930.77,4036.92,4091.28,4075.38,4110.77,4105.13,4071.79,4142.56,4126.15,4125.13,4088.21,2067,2060,4.983,0,0,0,0,
113,4082.05,4071.28,4069.74,3922.05,4042.56,4074.87,4038.46,4085.13,4078.46,4063.08,4112.82,4100.51,4090.26,4056.41,2071,2054,4.991,0,0,0,0,
114,4073.85,4069.23,4056.92,3921.03,4023.59,4061.54,4037.44,4076.41,4083.59,4040,4108.72,4095.9,4074.36,4051.28,2073,2050,4.999,0,0,0,0,
115,4082.56,4074.36,4068.21,3929.74,4051.79,4087.69,4051.79,4078.97,4087.69,4039.49,4112.82,4097.95,4081.54,4058.46,2074,2045,5.009,0,0,0,0,
116,4076.92,4061.54,4061.54,3933.85,4092.82,4107.69,4040.51,4065.13,4079.49,4062.05,4104.1,4090.26,4088.72,4050.26,2076,2045,5.014,0,0,0,0,
117,4089.23,4067.69,4069.74,3942.05,4065.64,4091.79,4042.56,4078.46,4096.41,4070.77,4118.97,4111.79,4107.69,4066.67,2077,2042,5.023,0,0,0,0,
118,4109.23,4089.23,4094.36,3956.92,4029.74,4073.85,4062.05,4108.21,4110.77,4073.85,4135.9,4137.95,4122.56,4095.38,2077,2042,5.031,0,0,0,0,
119,4095.38,4083.59,4085.64,3961.54,4031.79,4075.38,4051.28,4096.41,4099.49,4081.54,4121.03,4118.97,4108.72,4086.67,2077,2042,5.038,0,0,0,0,
120,4074.87,4063.08,4068.21,3956.41,4038.46,4080.51,4029.23,4066.67,4088.72,4062.05,4105.13,4100,4089.74,4060.51,2076,2042,5.046,0,0,0,0,
121,4091.79,4070.26,4086.67,3961.03,4053.85,4075.38,4037.95,4076.92,4088.72,4062.56,4118.97,4118.46,4104.62,4072.31,2074,2043,5.053,0,0,0,0,
122,4104.62,4083.08,4096.92,3971.28,4053.85,4073.33,4048.72,4086.15,4080,4072.82,4121.03,4121.54,4120,4085.64,2072,2043,5.063,0,0,0,0,
123,4080.51,4066.15,4069.23,3973.85,4014.87,4073.33,4030.26,4063.08,4064.1,4023.08,4092.82,4093.85,4094.87,4061.03,2070,2042,5.069,0,0,0,0,
124,4067.69,4058.46,4061.03,3972.82,4018.97,4076.92,4037.44,4064.1,4071.28,4016.92,4089.23,4091.79,4077.95,4051.79,2065,2040,5.077,0,0,0,0,
125,4073.33,4067.18,4075.9,3973.33,4063.59,4093.33,4067.18,4078.97,4084.62,4058.46,4102.05,4109.23,4087.18,4063.08,2066,2040,5.086,0,0,0,0,
126,4068.21,4062.56,4071.28,3976.92,4074.36,4096.41,4051.79,4064.62,4077.44,4055.38,4088.72,4099.49,4084.62,4057.95,2067,2035,5.094,0,0,0,0,
127,4066.67,4062.05,4063.08,3986.67,4060.51,4076.92,4023.08,4059.49,4074.36,4053.85,4081.54,4087.18,4082.05,4053.85,2066,2036,5.102,0,0,0,0,
128,4076.92,4074.36,4079.49,3990.77,4043.08,4066.67,4034.36,4083.59,4088.72,4067.69,4105.13,4101.54,4098.46,4068.21,2065,2036,5.109,0,0,0,0,
0,4077.44,4076.41,4090.26,3989.74,4046.67,4082.56,4053.33,4093.85,4095.9,4071.79,4116.41,4113.85,4109.74,4077.44,2065,2036,5.117,0,0,0,0,
1,4077.44,4075.9,4081.03,3992.82,4079.49,4101.03,4052.82,4088.21,4090.77,4065.13,4106.15,4110.77,4105.13,4073.33,2066,2035,5.125,0,0,0,0,
2,4077.95,4081.54,4076.92,3995.38,4073.85,4097.95,4051.28,4084.62,4092.31,4044.62,4097.95,4105.64,4093.33,4066.67,2062,2034,5.133,0,0,0,0,
3,4063.59,4075.38,4074.87,3991.79,4034.87,4088.21,4045.64,4072.82,4087.69,4035.38,4091.28,4095.38,4081.54,4054.87,2063,2034,5.141,0,0,0,0,
4,4061.54,4073.33,4073.85,3998.97,4061.03,4093.33,4042.56,4069.23,4083.59,4076.92,4089.74,4093.33,4086.67,4055.9,2063,2032,5.149,0,0,0,0,
5,4080.51,4085.64,4083.08,4008.21,4086.67,4096.92,4052.31,4083.59,4094.36,4091.79,4098.46,4109.23,4097.44,4070.77,2063,2031,5.157,0,0,0,0,
6,4065.13,4067.69,4075.38,3995.38,4037.95,4089.74,4046.67,4077.44,4092.31,4040,4095.38,4097.95,4081.03,4056.41,2065,2032,5.165,0,0,0,0,
7,4037.95,4040,4055.38,3986.67,4028.21,4092.31,4033.85,4070.77,4078.46,4031.28,4084.62,4075.38,4067.69,4031.79,2064,2036,5.172,0,0,0,0,
8,4055.9,4055.9,4063.08,4001.03,4072.82,4095.38,4041.03,4090.77,4074.87,4053.85,4083.08,4087.18,4085.13,4044.62,2062,2040,5.18,0,0,0,0,
9,4080.51,4082.05,4083.08,4010.26,4081.54,4083.59,4049.74,4094.87,4082.05,4048.72,4089.23,4107.18,4095.9,4068.72,2061,2040,5.187,0,0,0,0,
10,4068.72,4071.28,4078.97,4004.1,4058.46,4080.51,4047.69,4077.44,4088.72,4042.56,4094.36,4106.15,4077.44,4062.05,2054,2039,5.195,0,0,0,0,
11,4055.38,4054.87,4070.77,4001.03,4034.87,4085.64,4043.08,4076.41,4087.69,4054.87,4090.77,4098.46,4066.67,4053.85,2053,2041,5.203,0,0,0,0,
12,4060,4057.44,4073.85,4003.08,4017.95,4075.9,4034.36,4080.51,4075.9,4067.69,4076.92,4090.77,4077.95,4057.95,2050,2043,5.221,0,0,0,0,
13,4065.64,4064.62,4078.97,4006.67,4046.67,4077.44,4036.41,4073.85,4072.31,4058.97,4074.87,4089.74,4085.13,4051.79,2044,2042,5.227,0,0,0,0,
14,4063.59,4064.1,4077.95,4010.77,4081.54,4098.97,4049.74,4072.31,4075.38,4035.38,4078.46,4092.31,4076.41,4040,2042,2042,5.234,0,0,0,0,
15,4063.59,4051.28,4073.85,4012.31,4058.97,4101.54,4046.15,4076.41,4066.67,4021.54,4072.31,4086.67,4072.31,4040.51,2037,2041,5.242,0,0,0,0,
16,4070.77,4041.54,4081.03,4017.95,4053.33,4091.79,4044.1,4082.05,4067.69,4034.87,4080.51,4092.82,4082.56,4057.95,2037,2038,5.251,0,0,0,0,
17,4078.97,4046.67,4092.31,4024.1,4087.18,4100.51,4059.49,4088.72,4089.74,4066.15,4106.15,4117.95,4092.31,4073.85,2034,2035,5.259,0,0,0,0,
18,4083.08,4052.31,4094.87,4020.51,4081.54,4103.08,4065.13,4091.79,4108.72,4090.77,4112.31,4127.18,4097.44,4081.03,2031,2034,5.267,0,0,0,0,
19,4092.31,4051.28,4102.56,4017.95,4063.59,4093.33,4063.08,4097.95,4108.72,4091.79,4107.69,4123.08,4107.69,4089.74,2027,2034,5.275,0,0,0,0,
20,4092.82,4040.51,4108.21,4020.51,4068.72,4089.74,4062.56,4095.9,4088.21,4066.15,4104.62,4125.13,4107.18,4084.62,2024,2036,5.283,0,0,0,0,
21,4085.64,4032.82,4098.97,4021.03,4069.74,4091.28,4059.49,4083.08,4068.21,4054.36,4092.31,4121.03,4092.82,4068.72,2021,2038,5.29,0,0,0,0,
22,4094.36,4051.28,4098.97,4022.05,4074.36,4092.31,4062.56,4087.69,4081.03,4075.38,4094.36,4117.44,4098.46,4076.41,2019,2039,5.297,0,0,0,0,
23,4101.54,4063.59,4104.1,4024.1,4072.31,4086.15,4065.13,4094.87,4094.36,4068.72,4103.59,4118.97,4110.77,4087.18,2016,2038,5.306,0,0,0,0,
24,4090.26,4050.77,4097.44,4017.95,4051.28,4074.36,4062.05,4089.23,4092.31,4062.56,4098.97,4120,4104.1,4076.92,2014,2036,5.315,0,0,0,0,
25,4066.15,4031.79,4078.46,4008.21,4057.44,4073.33,4052.31,4073.33,4091.79,4071.28,4082.05,4105.13,4079.49,4055.38,2013,2035,5.322,0,0,0,0,
26,4047.69,4017.44,4059.49,4001.54,4071.79,4080,4041.54,4056.41,4076.92,4047.69,4061.54,4078.46,4058.97,4035.38,2012,2032,5.329,0,0,0,0,
27,4062.05,4031.79,4070.77,4001.54,4055.9,4081.03,4057.95,4071.79,4078.97,4047.18,4067.69,4084.1,4083.59,4046.15,2012,2030,5.338,0,0,0,0,
28,4078.97,4051.28,4092.31,4006.15,4042.05,4077.95,4074.36,4093.33,4095.38,4065.64,4087.18,4103.08,4103.59,4064.1,2015,2027,5.346,0,0,0,0,
29,4072.82,4045.64,4091.28,4016.92,4044.1,4071.28,4061.03,4090.26,4100,4065.64,4090.26,4104.1,4086.15,4061.03,2016,2028,5.354,0,0,0,0,
30,4067.18,4031.79,4076.92,4016.92,4054.36,4063.08,4048.21,4084.62,4100,4077.95,4086.15,4100.51,4085.13,4056.41,2020,2029,5.362,0,0,0,0,
31,4072.82,4031.79,4074.87,4005.13,4081.54,4075.38,4052.82,4075.38,4091.28,4080.51,4081.03,4098.97,4102.56,4059.49,2021,2032,5.369,0,0,0,0,
32,4087.18,4056.41,4096.41,4015.38,4084.1,4093.33,4069.23,4076.92,4086.67,4055.38,4086.15,4110.77,4109.74,4076.92,2023,2033,5.378,0,0,0,0,
33,4092.31,4078.46,4109.74,4030.26,4050.26,4083.59,4078.46,4089.74,4099.49,4071.28,4098.46,4127.18,4110.26,4093.33,2025,2035,5.401,0,0,0,0,
34,4075.38,4063.59,4091.79,4018.97,4055.38,4065.13,4058.97,4077.44,4098.46,4101.54,4085.64,4114.87,4101.03,4073.33,2026,2037,5.404,0,0,0,0,
35,4080.51,4057.95,4093.85,4020.51,4093.33,4074.36,4050.77,4071.79,4086.15,4077.44,4079.49,4106.15,4100,4063.59,2027,2039,5.408,0,0,0,0,
36,4112.31,4087.18,4127.69,4043.08,4081.54,4095.38,4092.82,4108.21,4108.72,4071.28,4112.82,4137.95,4126.67,4097.95,2029,2039,5.425,0,0,0,0,
37,4094.36,4076.41,4109.74,4032.82,4044.62,4094.36,4096.41,4100.51,4108.21,4081.03,4095.9,4133.85,4108.72,4084.1,2033,2037,5.426,0,0,0,0,
38,4057.44,4044.62,4076.41,4011.79,4047.69,4083.08,4055.38,4056.92,4077.95,4061.54,4049.74,4095.38,4062.56,4039.49,2035,2035,5.433,0,0,0,0,
39,4068.72,4055.38,4094.36,4018.97,4060.51,4083.59,4056.92,4066.15,4085.13,4049.23,4068.72,4101.54,4075.9,4056.92,2036,2030,5.439,0,0,0,0,
40,4083.59,4070.77,4114.36,4029.74,4045.13,4084.62,4076.41,4090.26,4093.85,4053.85,4094.87,4124.62,4098.46,4082.56,2036,2030,5.447,0,0,0,0,
41,4083.08,4071.28,4112.82,4033.85,4045.64,4077.95,4072.31,4081.03,4092.82,4078.46,4085.13,4126.15,4091.28,4069.74,2039,2029,5.455,0,0,0,0,
42,4074.87,4062.56,4102.05,4028.72,4061.54,4075.38,4052.31,4052.82,4083.08,4069.74,4067.69,4107.69,4075.9,4050.77,2040,2028,5.463,0,0,0,0,
43,4072.82,4058.97,4098.46,4020,4072.31,4085.13,4054.87,4053.85,4064.1,4030.77,4069.23,4098.97,4074.36,4060,2042,2028,5.471,0,0,0,0,
44,4086.67,4069.74,4112.82,4025.64,4067.69,4092.31,4080.51,4085.64,4069.74,4057.95,4091.28,4116.41,4092.31,4081.54,2041,2033,5.48,0,0,0,0,
45,4088.72,4075.38,4116.92,4035.9,4064.62,4088.72,4089.23,4093.85,4092.82,4102.05,4098.97,4125.64,4104.62,4080.51,2042,2036,5.49,0,0,0,0,
46,4078.97,4076.92,4103.08,4034.87,4066.15,4081.03,4076.92,4082.05,4098.97,4073.85,4083.59,4112.82,4093.85,4064.62,2042,2039,5.496,0,0,0,0,
47,4084.1,4089.74,4103.08,4034.87,4067.69,4084.62,4076.41,4086.15,4091.28,4052.82,4086.67,4109.74,4088.72,4069.23,2041,2039,5.503,0,0,0,0,
48,4090.26,4086.15,4109.74,4037.44,4077.44,4096.92,4086.15,4091.79,4087.69,4075.9,4098.46,4113.33,4096.92,4078.97,2041,2038,5.511,0,0,0,0,
49,4083.59,4070.26,4106.15,4033.33,4082.56,4101.54,4084.1,4087.69,4087.69,4072.82,4089.23,4107.18,4088.21,4073.85,2041,2038,5.528,0,0,0,0,
50,4084.62,4080.51,4105.13,4033.33,4088.72,4101.54,4079.49,4090.77,4095.38,4062.56,4084.62,4112.82,4085.13,4079.49,2040,2033,5.529,0,0,0,0,
51,4095.38,4095.9,4112.31,4041.03,4090.77,4100,4081.03,4095.38,4094.87,4082.05,4096.41,4127.18,4107.69,4094.87,2039,2032,5.535,0,0,0,0,
52,4086.67,4081.03,4108.21,4038.97,4050.77,4092.82,4077.44,4085.13,4082.56,4080,4093.33,4120,4106.67,4087.18,2039,2030,5.543,0,0,0,0,
53,4063.08,4063.08,4088.21,4026.15,4031.28,4086.15,4058.97,4067.18,4073.85,4045.64,4076.41,4100,4083.08,4064.62,2040,2030,5.554,0,0,0,0,
54,4071.79,4069.23,4088.21,4034.87,4093.85,4089.23,4057.95,4069.74,4080.51,4041.03,4081.03,4106.67,4089.74,4069.23,2039,2028,5.558,0,0,0,0,
55,4094.87,4078.46,4110.77,4055.9,4111.28,4093.33,4080,4091.79,4098.97,4088.21,4104.62,4129.74,4108.72,4091.28,2038,2028,5.569,0,0,0,0,
56,4083.08,4078.46,4112.31,4048.21,4056.41,4083.08,4075.9,4093.85,4098.46,4104.62,4107.69,4128.72,4101.54,4090.26,2040,2028,5.573,0,0,0,0,
57,4072.31,4087.18,4097.95,4035.9,4074.87,4079.49,4066.15,4088.21,4083.59,4072.82,4089.74,4114.36,4099.49,4081.54,2041,2032,5.582,0,0,0,0,
58,4082.05,4085.13,4093.85,4042.05,4115.38,4092.82,4074.87,4088.72,4073.33,4071.79,4082.56,4104.1,4103.08,4077.44,2041,2035,5.589,0,0,0,0,
59,4077.44,4070.77,4096.41,4045.13,4076.92,4095.38,4072.31,4080.51,4067.69,4079.49,4087.18,4103.59,4093.85,4069.23,2041,2039,5.597,0,0,0,0,
60,4080.51,4082.05,4114.87,4049.23,4054.36,4085.64,4083.08,4090.26,4081.54,4051.79,4096.92,4124.62,4098.46,4080,2040,2040,5.608,0,0,0,0,
61,4087.18,4091.79,4120,4047.18,4076.41,4086.15,4097.44,4102.56,4096.41,4055.38,4093.33,4132.82,4099.49,4095.38,2038,2041,5.613,0,0,0,0,
62,4057.95,4065.64,4080.51,4025.64,4052.31,4093.85,4065.64,4065.13,4068.72,4073.33,4066.67,4092.82,4069.74,4064.1,2039,2040,5.624,0,0,0,0,
63,4037.44,4052.31,4062.05,4017.95,4035.9,4092.82,4041.54,4036.41,4042.56,4030.26,4055.38,4068.21,4055.38,4037.44,2040,2037,5.628,0,0,0,0,
64,4060.51,4069.74,4089.74,4035.38,4073.85,4082.56,4061.03,4071.79,4058.97,4016.41,4068.21,4091.28,4076.92,4058.97,2041,2036,5.637,0,0,0,0,
65,4070.77,4069.23,4092.31,4037.44,4083.59,4082.56,4064.62,4105.64,4066.15,4064.1,4069.23,4095.9,4085.64,4066.67,2042,2034,5.644,0,0,0,0,
66,4053.33,4053.85,4071.28,4028.72,4063.08,4096.92,4052.31,4126.67,4052.82,4071.79,4053.85,4078.46,4073.85,4051.28,2044,2031,5.652,0,0,0,0,
67,4064.62,4076.41,4088.72,4041.54,4087.69,4096.41,4068.21,4196.92,4061.54,4046.67,4062.56,4094.87,4084.62,4068.72,2045,2029,5.66,0,0,0,0,
68,4079.49,4091.79,4105.13,4049.23,4071.28,4073.85,4071.79,4232.82,4066.67,4031.28,4074.87,4111.79,4092.31,4084.62,2046,2032,5.669,0,0,0,0,
69,4071.79,4074.87,4098.97,4042.56,4016.41,4070.26,4061.03,4177.44,4059.49,4041.54,4073.33,4101.03,4086.67,4081.03,2047,2033,5.677,0,0,0,0,
70,4086.15,4088.72,4111.79,4055.9,4073.33,4094.36,4075.9,4145.64,4070.26,4080,4085.13,4105.64,4104.1,4097.95,2048,2035,5.684,0,0,0,0,
71,4098.97,4107.69,4115.9,4067.18,4152.31,4107.18,4076.41,4145.64,4065.64,4087.18,4083.59,4107.18,4110.26,4096.41,2048,2037,5.691,0,0,0,0,
72,4088.72,4090.77,4099.49,4054.87,4102.56,4093.33,4055.38,4145.13,4056.92,4064.62,4067.18,4097.44,4094.87,4075.38,2048,2041,5.699,0,0,0,0,
73,4089.23,4085.13,4105.13,4052.31,4037.95,4083.59,4066.67,4198.97,4072.31,4059.49,4069.23,4108.21,4100,4084.1,2048,2040,5.707,0,0,0,0,
74,4086.67,4093.33,4113.85,4062.05,4080,4099.49,4087.18,4248.72,4063.59,4044.1,4060.51,4103.08,4096.41,4078.46,2048,2037,5.715,0,0,0,0,
75,4061.54,4076.41,4092.82,4053.33,4091.79,4098.46,4067.18,4226.15,4035.38,4024.62,4032.31,4071.28,4067.69,4045.13,2047,2035,5.727,0,0,0,0,
76,4055.9,4065.64,4082.56,4044.62,4048.21,4086.15,4047.18,4220.51,4046.67,4033.85,4030.77,4067.18,4071.28,4046.15,2047,2032,5.731,0,0,0,0,
77,4066.67,4078.97,4097.44,4055.9,4073.33,4095.38,4052.31,4258.97,4066.15,4040,4049.74,4086.15,4101.03,4070.77,2048,2033,5.749,0,0,0,0,
78,4075.9,4091.79,4110.26,4072.31,4123.08,4099.49,4065.13,4282.05,4063.08,4066.15,4054.87,4090.77,4109.23,4079.49,2048,2033,5.755,0,0,0,0,
87,4058.97,4064.1,4081.54,4060,4065.64,4098.97,4052.31,4160.51,4060,4066.15,4044.62,4076.41,4091.28,4052.31,2046,2028,5.762,0,0,0,0,
88,4074.36,4081.03,4096.41,4073.85,4085.64,4101.03,4061.03,4155.38,4075.9,4052.82,4066.67,4094.36,4114.36,4067.18,2047,2025,5.77,0,0,0,0,
89,4068.72,4074.87,4096.41,4072.82,4095.38,4116.41,4076.92,4131.28,4056.92,4017.95,4044.1,4084.62,4088.21,4058.46,2049,2027,5.779,0,0,0,0,
90,4070.26,4069.23,4098.97,4072.31,4083.08,4122.56,4082.05,4133.33,4057.95,4054.87,4032.31,4081.54,4077.95,4061.54,2050,2028,5.787,0,0,0,0,
91,4076.41,4078.46,4099.49,4077.95,4092.82,4110.26,4062.56,4144.1,4072.31,4094.36,4049.74,4087.69,4101.03,4077.95,2051,2032,5.797,0,0,0,0,
92,4066.15,4077.44,4085.13,4073.33,4098.46,4105.13,4048.21,4123.59,4052.31,4058.97,4047.18,4074.36,4099.49,4065.13,2053,2035,5.802,0,0,0,0,
93,4071.28,4076.41,4092.82,4071.79,4084.1,4106.15,4064.1,4116.41,4048.72,4038.97,4047.18,4081.54,4095.38,4065.64,2053,2036,5.81,0,0,0,0,
94,4087.18,4078.46,4111.28,4078.46,4091.28,4113.85,4074.87,4128.21,4071.28,4053.85,4064.1,4104.62,4099.49,4085.64,2052,2034,5.818,0,0,0,0,
95,4082.56,4081.03,4105.13,4076.41,4096.92,4131.79,4075.38,4123.59,4060,4054.36,4055.9,4096.41,4088.21,4074.87,2050,2039,5.825,0,0,0,0,
96,4068.21,4075.9,4090.26,4072.31,4071.79,4144.1,4080,4119.49,4042.05,4042.56,4029.74,4080,4076.41,4058.46,2050,2040,5.833,0,0,0,0,
97,4071.28,4065.64,4097.44,4081.03,4054.36,4136.41,4074.36,4135.38,4060.51,4036.92,4033.85,4088.72,4081.03,4076.92,2049,2038,5.841,0,0,0,0,
98,4077.44,4065.64,4106.15,4083.08,4055.9,4121.54,4060.51,4146.67,4061.54,4037.44,4051.79,4092.82,4081.03,4081.54,2049,2038,5.849,0,0,0,0,
99,4061.54,4063.59,4086.67,4066.67,4060.51,4119.49,4047.18,4138.46,4036.41,4045.64,4042.56,4069.23,4070.26,4051.79,2047,2033,5.857,0,0,0,0,
100,4054.36,4059.49,4076.41,4062.05,4084.62,4132.82,4050.77,4144.62,4037.95,4040,4030.77,4062.05,4073.33,4045.13,2045,2030,5.865,0,0,0,0,
101,4067.69,4065.13,4092.31,4075.9,4105.64,4136.92,4062.05,4144.62,4060.51,4028.72,4043.08,4080.51,4082.05,4066.15,2045,2030,5.873,0,0,0,0,
102,4061.54,4064.62,4093.85,4078.46,4053.85,4110.77,4053.33,4112.31,4058.46,4032.31,4045.64,4073.85,4077.95,4065.64,2045,2031,5.882,0,0,0,0,
103,4055.38,4057.95,4085.64,4071.28,4022.56,4102.56,4043.08,4109.74,4049.74,4040.51,4035.9,4061.03,4075.38,4058.97,2046,2031,5.889,0,0,0,0,
104,4074.87,4069.23,4092.82,4075.38,4095.9,4143.59,4060,4137.95,4057.95,4060,4042.56,4073.33,4086.67,4068.21,2045,2035,5.9,0,0,0,0,
105,4084.62,4089.23,4101.54,4086.15,4127.69,4158.46,4079.49,4133.85,4058.46,4064.1,4054.36,4080.51,4093.85,4072.82,2046,2035,5.904,0,0,0,0,
106,4072.82,4089.23,4097.44,4086.67,4073.85,4123.59,4066.15,4108.72,4050.77,4036.41,4055.38,4073.85,4085.64,4070.26,2045,2036,5.916,0,0,0,0,
107,4066.15,4080.51,4089.74,4076.41,4063.08,4111.28,4050.77,4109.74,4060.51,4045.13,4054.36,4073.33,4087.18,4071.28,2046,2035,5.92,0,0,0,0,
108,4060,4071.28,4078.97,4073.33,4065.64,4121.54,4052.82,4110.77,4075.9,4081.03,4051.79,4065.64,4088.21,4060.51,2045,2034,5.928,0,0,0,0,
109,4047.18,4060,4069.23,4075.38,4042.56,4116.92,4051.79,4092.82,4065.13,4049.23,4044.1,4052.82,4071.79,4046.15,2046,2035,5.936,0,0,0,0,
110,4048.72,4064.62,4074.87,4077.44,4071.28,4122.56,4056.92,4090.26,4053.85,4004.62,4046.15,4061.03,4071.28,4051.79,2046,2032,5.944,0,0,0,0,
111,4064.1,4079.49,4090.26,4085.64,4116.92,4136.41,4079.49,4116.41,4074.36,4044.62,4056.92,4078.97,4092.31,4065.64,2047,2032,5.952,0,0,0,0,
112,4068.21,4077.95,4094.87,4084.1,4083.08,4118.46,4077.95,4117.95,4078.97,4074.36,4065.64,4077.95,4095.9,4063.08,2048,2032,5.959,0,0,0,0,
113,4062.05,4072.31,4086.67,4071.79,4035.9,4105.13,4053.85,4079.49,4047.18,4041.03,4064.1,4067.69,4078.97,4052.82,2047,2031,5.967,0,0,0,0,
114,4065.13,4079.49,4084.62,4077.44,4073.33,4123.59,4052.82,4068.21,4037.95,4041.03,4059.49,4068.72,4075.9,4057.95,2048,2031,5.975,0,0,0,0,
115,4075.9,4086.15,4094.36,4093.85,4110.26,4127.69,4062.05,4095.38,4072.82,4066.67,4073.85,4080.51,4097.95,4075.9,2047,2029,5.984,0,0,0,0,
116,4071.79,4076.92,4092.31,4088.21,4075.9,4108.72,4058.97,4100,4084.1,4060.51,4083.08,4080.51,4111.28,4076.41,2047,2029,5.991,0,0,0,0,
117,4062.05,4074.36,4082.56,4080,4067.69,4110.26,4061.54,4087.69,4064.62,4058.97,4068.72,4069.74,4098.46,4059.49,2048,2031,6.002,0,0,0,0,
118,4062.56,4081.54,4084.62,4086.67,4086.67,4120,4069.23,4090.26,4056.41,4064.1,4057.95,4064.1,4080.51,4051.79,2047,2034,6.007,0,0,0,0,
119,4063.08,4079.49,4089.74,4088.21,4062.05,4110.26,4066.67,4095.9,4058.46,4057.44,4072.31,4064.62,4081.03,4060.51,2047,2041,6.015,0,0,0,0,
120,4054.87,4069.23,4079.49,4080,4035.9,4109.74,4065.13,4094.36,4058.97,4037.44,4080,4060,4087.18,4060,2047,2042,6.026,0,0,0,0,
121,4051.79,4063.08,4068.72,4077.44,4058.97,4120,4068.72,4100,4053.33,4023.59,4065.13,4050.26,4081.03,4042.56,2046,2041,6.03,0,0,0,0,
122,4056.92,4065.64,4072.82,4075.38,4069.74,4109.74,4069.74,4117.44,4050.26,4040,4061.54,4052.82,4077.44,4039.49,2045,2043,6.038,0,0,0,0,
123,4059.49,4074.87,4082.05,4075.9,4052.31,4103.08,4076.41,4129.23,4058.46,4067.18,4074.87,4064.1,4090.77,4060.51,2044,2040,6.046,0,0,0,0,
124,4058.46,4080,4078.46,4080.51,4059.49,4117.44,4082.56,4112.82,4069.23,4062.56,4076.41,4068.21,4091.79,4064.62,2045,2038,6.054,0,0,0,0,
125,4057.95,4076.92,4071.79,4080,4092.82,4124.1,4080.51,4100,4073.85,4060,4074.87,4068.72,4079.49,4050.77,2044,2037,6.062,0,0,0,0,
126,4057.44,4081.54,4080,4081.54,4102.05,4123.59,4088.72,4108.21,4080,4071.79,4088.72,4073.85,4088.72,4059.49,2044,2038,6.07,0,0,0,0,
127,4064.1,4089.74,4093.85,4086.15,4061.03,4125.64,4100.51,4106.67,4078.97,4049.23,4097.95,4080.51,4099.49,4078.97,2045,2037,6.091,0,0,0,0,
128,4072.82,4083.08,4093.85,4083.08,4063.59,4126.15,4090.26,4095.38,4061.03,4047.18,4085.13,4077.95,4084.62,4073.33,2044,2038,6.094,0,0,0,0,
0,4081.54,4083.08,4095.38,4085.13,4109.74,4124.1,4079.49,4107.69,4062.56,4077.44,4085.64,4078.97,4091.28,4070.26,2043,2038,6.101,0,0,0,0,
1,4092.82,4093.33,4107.69,4095.9,4091.28,4116.92,4093.33,4121.03,4084.62,4074.36,4105.13,4092.31,4107.69,4083.08,2042,2035,6.122,0,0,0,0,
2,4093.33,4094.87,4108.21,4095.38,4074.36,4123.08,4106.67,4102.56,4086.67,4066.67,4101.03,4098.46,4092.82,4085.13,2042,2034,6.125,0,0,0,0,
3,4087.69,4094.36,4101.03,4089.74,4087.69,4131.28,4098.97,4092.82,4079.49,4084.1,4089.23,4090.77,4091.79,4083.59,2042,2033,6.133,0,0,0,0,
4,4088.21,4095.38,4102.56,4088.72,4070.26,4120.51,4095.9,4103.59,4087.69,4089.23,4098.97,4087.18,4107.18,4085.13,2041,2032,6.141,0,0,0,0,
5,4088.21,4088.72,4106.15,4085.13,4069.74,4112.82,4102.05,4102.56,4087.69,4071.79,4102.05,4087.18,4096.41,4078.97,2040,2031,6.157,0,0,0,0,
6,4079.49,4081.54,4098.46,4084.1,4087.69,4117.95,4087.18,4090.77,4069.74,4063.08,4089.74,4078.97,4080,4071.28,2041,2029,6.167,0,0,0,0,
7,4085.64,4086.15,4101.03,4087.18,4067.69,4121.03,4084.1,4109.23,4072.82,4066.67,4100.51,4085.64,4093.85,4082.05,2039,2028,6.169,0,0,0,0,
7,4085.64,4086.15,4101.03,4087.18,4067.69,4121.03,4084.1,4109.23,4072.82,4066.67,4100.51,4085.64,4093.85,4082.05,2039,2028,6.172,0,0,0,0,
8,4104.1,4094.87,4120.51,4090.77,4072.31,4129.23,4111.28,4134.36,4088.21,4073.33,4116.41,4103.59,4109.23,4096.92,2039,2028,6.181,0,0,0,0,
9,4102.56,4095.9,4120,4092.82,4109.74,4136.92,4112.82,4117.44,4084.62,4075.9,4105.13,4097.95,4105.64,4092.82,2038,2028,6.189,0,0,0,0,
10,4083.08,4085.13,4097.44,4084.1,4083.59,4117.44,4080.51,4089.23,4080,4084.62,4093.33,4078.46,4096.41,4076.41,2039,2032,6.203,0,0,0,0,
11,4080.51,4084.1,4100,4082.05,4046.67,4101.03,4082.56,4098.97,4090.26,4088.21,4097.95,4082.56,4089.23,4074.87,2037,2033,6.207,0,0,0,0,
12,4104.62,4105.13,4128.21,4096.92,4072.31,4118.46,4124.1,4130.77,4096.92,4074.36,4119.49,4109.23,4098.97,4099.49,2038,2032,6.212,0,0,0,0,
13,4112.82,4107.18,4128.72,4094.87,4095.38,4134.36,4126.67,4125.64,4092.31,4080,4124.62,4111.28,4109.23,4110.26,2038,2033,6.219,0,0,0,0,
14,4097.95,4088.21,4106.67,4081.54,4079.49,4122.56,4090.26,4095.9,4085.13,4093.33,4099.49,4088.21,4098.97,4087.69,2038,2033,6.227,0,0,0,0,
15,4086.15,4079.49,4098.46,4082.56,4061.54,4110.26,4075.38,4093.85,4080,4084.62,4084.1,4075.9,4081.03,4068.21,2037,2031,6.239,0,0,0,0,
16,4088.72,4082.56,4101.54,4087.18,4078.46,4118.97,4098.97,4112.31,4077.95,4076.92,4093.33,4083.59,4085.64,4076.41,2038,2031,6.243,0,0,0,0,
17,4100.51,4086.15,4107.18,4086.15,4084.62,4121.54,4111.79,4120,4082.05,4076.41,4105.64,4093.85,4102.56,4094.36,2038,2032,6.252,0,0,0,0,
18,4096.41,4088.72,4105.64,4086.67,4057.44,4110.77,4088.21,4107.18,4077.44,4063.08,4103.08,4087.69,4095.9,4091.79,2040,2032,6.261,0,0,0,0,
19,4093.33,4100,4105.64,4088.21,4076.41,4115.38,4076.41,4102.05,4073.85,4071.28,4108.72,4086.67,4094.36,4085.64,2043,2033,6.278,0,0,0,0,
19,4093.33,4100,4105.64,4088.21,4076.41,4115.38,4076.41,4102.05,4073.85,4071.28,4108.72,4086.67,4094.36,4085.64,2043,2033,6.282,0,0,0,0,
20,4107.69,4103.59,4111.79,4090.26,4114.87,4126.67,4093.33,4111.28,4078.46,4097.44,4120,4095.9,4104.1,4091.79,2045,2036,6.284,0,0,0,0,
21,4105.64,4089.23,4111.28,4090.26,4090.77,4124.1,4100,4113.33,4076.92,4086.15,4113.33,4087.69,4094.36,4092.31,2046,2036,6.291,0,0,0,0,
22,4083.08,4082.56,4101.54,4090.26,4069.74,4122.56,4086.15,4105.13,4077.44,4074.87,4099.49,4073.85,4088.72,4087.69,2046,2038,6.298,0,0,0,0,
23,4099.49,4103.08,4112.31,4102.05,4098.46,4124.62,4094.87,4116.41,4093.33,4099.49,4114.36,4086.67,4112.82,4102.05,2048,2037,6.31,0,0,0,0,
24,4131.79,4119.49,4133.33,4109.23,4092.31,4122.05,4122.05,4132.82,4104.1,4103.08,4136.92,4106.67,4118.46,4114.36,2048,2038,6.317,0,0,0,0,
25,4102.56,4095.38,4107.18,4089.74,4057.95,4122.05,4108.21,4103.59,4080.51,4070.77,4104.62,4086.67,4079.49,4081.03,2048,2040,6.325,0,0,0,0,
26,4067.69,4074.36,4078.97,4075.38,4068.72,4113.33,4072.31,4078.46,4064.1,4070.26,4074.87,4065.64,4068.72,4060,2049,2038,6.331,0,0,0,0,
27,4080.51,4082.56,4094.36,4086.67,4088.72,4101.03,4071.28,4091.28,4073.85,4080,4095.9,4073.33,4089.74,4080.51,2049,2040,6.349,0,0,0,0,
28,4094.87,4093.33,4106.15,4096.41,4100.51,4121.03,4094.87,4093.85,4072.31,4061.54,4109.23,4079.49,4084.62,4086.67,2049,2039,6.356,0,0,0,0,
29,4090.77,4095.38,4095.9,4090.26,4098.97,4138.97,4095.9,4083.08,4071.28,4072.82,4096.92,4076.41,4078.46,4072.82,2051,2040,6.361,0,0,0,0,
30,4100.51,4100.51,4101.54,4088.21,4089.74,4122.05,4088.21,4097.95,4089.74,4116.41,4108.21,4086.15,4108.72,4087.18,2050,2040,6.369,0,0,0,0,
31,4112.82,4108.21,4114.36,4096.92,4100,4113.85,4094.87,4117.95,4093.33,4114.87,4126.67,4103.08,4123.59,4107.18,2051,2038,6.379,0,0,0,0,
32,4094.36,4096.41,4105.13,4093.33,4103.59,4125.13,4088.21,4103.59,4076.92,4067.18,4106.67,4093.33,4093.33,4087.69,2051,2039,6.386,0,0,0,0,
33,4084.1,4089.74,4103.08,4089.74,4081.03,4116.41,4078.97,4094.87,4085.13,4058.46,4096.92,4082.56,4086.15,4082.05,2051,2041,6.413,0,0,0,0,
34,4099.49,4100.51,4117.44,4096.92,4063.59,4103.08,4093.33,4112.31,4096.41,4095.38,4112.82,4093.85,4107.69,4106.15,2050,2044,6.413,0,0,0,0,
35,4097.95,4097.44,4115.38,4092.82,4065.64,4102.05,4085.13,4107.69,4076.92,4100,4100.51,4092.82,4094.87,4098.97,2048,2043,6.421,0,0,0,0,
36,4086.15,4087.69,4106.67,4086.15,4069.74,4105.13,4069.23,4096.92,4069.23,4078.46,4088.21,4078.46,4076.92,4075.9,2048,2042,6.425,0,0,0,0,
37,4092.31,4090.77,4110.26,4089.23,4090.26,4114.36,4084.62,4107.69,4082.05,4076.41,4100.51,4080.51,4091.28,4084.62,2045,2042,6.433,0,0,0,0,
38,4091.79,4090.26,4107.69,4086.15,4089.74,4109.74,4081.54,4101.03,4080,4068.72,4097.95,4085.13,4093.85,4090.26,2042,2039,6.441,0,0,0,0,
39,4077.44,4073.33,4092.31,4075.38,4039.49,4097.95,4056.41,4068.72,4060.51,4043.59,4080.51,4071.28,4066.67,4064.62,2039,2037,6.449,0,0,0,0,
40,4087.69,4077.44,4100.51,4083.59,4048.72,4106.15,4078.46,4075.38,4063.08,4056.92,4086.67,4072.31,4070.77,4068.21,2039,2036,6.46,0,0,0,0,
41,4098.97,4093.33,4116.41,4095.38,4112.31,4112.31,4105.13,4102.05,4081.54,4087.69,4095.38,4089.74,4096.41,4093.33,2038,2033,6.47,0,0,0,0,
42,4081.54,4088.72,4105.64,4087.18,4112.82,4112.82,4081.03,4092.82,4077.95,4070.26,4090.77,4085.64,4086.15,4091.79,2039,2034,6.474,0,0,0,0,
42,4081.54,4088.72,4105.64,4087.18,4112.82,4112.82,4081.03,4092.82,4077.95,4070.26,4090.77,4085.64,4086.15,4091.79,2039,2034,6.479,0,0,0,0,
43,4086.15,4094.87,4108.72,4091.79,4068.72,4114.36,4070.77,4085.64,4069.23,4056.41,4105.13,4085.13,4081.03,4095.38,2038,2034,6.488,0,0,0,0,
44,4112.82,4113.85,4128.72,4106.15,4050.26,4103.59,4083.08,4096.92,4080.51,4088.72,4117.44,4100.51,4105.13,4105.13,2039,2033,6.496,0,0,0,0,
45,4108.72,4113.33,4121.03,4098.46,4064.62,4094.87,4076.92,4090.26,4083.08,4081.03,4105.64,4097.95,4106.15,4095.9,2041,2033,6.505,0,0,0,0,
46,4090.77,4106.67,4110.77,4091.28,4090.26,4109.23,4079.49,4076.92,4072.82,4056.41,4104.1,4088.21,4086.67,4093.33,2040,2035,6.512,0,0,0,0,
47,4091.79,4105.64,4117.95,4097.44,4111.28,4123.59,4093.33,4078.97,4074.36,4090.26,4108.72,4091.28,4090.77,4102.56,2040,2035,6.52,0,0,0,0,
48,4096.41,4093.33,4113.33,4096.41,4089.23,4117.95,4086.67,4076.92,4076.92,4089.23,4095.38,4086.15,4094.87,4089.23,2044,2034,6.528,0,0,0,0,
49,4091.79,4091.28,4109.23,4094.87,4052.31,4104.62,4080,4075.38,4071.79,4052.82,4090.26,4080.51,4081.54,4080,2043,2034,6.536,0,0,0,0,
50,4094.36,4107.69,4120.51,4104.1,4064.62,4109.23,4091.28,4085.13,4075.38,4076.92,4102.56,4088.21,4082.05,4098.97,2047,2034,6.55,0,0,0,0,
51,4104.1,4111.28,4122.56,4106.67,4095.9,4121.54,4090.26,4084.62,4077.44,4095.38,4101.54,4090.26,4092.82,4105.64,2047,2034,6.556,0,0,0,0,
52,4109.74,4106.15,4118.46,4104.62,4096.41,4112.31,4077.44,4083.08,4074.87,4074.87,4108.72,4093.33,4103.59,4100.51,2047,2036,6.559,0,0,0,0,
53,4106.15,4105.64,4120.51,4099.49,4072.31,4099.49,4081.54,4091.79,4078.46,4080,4123.59,4100.51,4107.69,4100,2047,2037,6.568,0,0,0,0,
54,4104.1,4105.13,4119.49,4089.23,4078.97,4107.69,4092.82,4097.44,4088.21,4093.33,4111.28,4098.46,4094.36,4098.46,2045,2040,6.576,0,0,0,0,
55,4109.74,4108.72,4122.56,4094.36,4094.36,4111.28,4092.31,4104.1,4098.46,4096.41,4107.18,4098.46,4092.82,4100.51,2043,2041,6.584,0,0,0,0,
56,4109.74,4113.85,4128.21,4105.13,4081.54,4106.67,4090.77,4114.36,4098.97,4105.13,4132.82,4109.74,4114.87,4110.26,2044,2040,6.591,0,0,0,0,
57,4108.21,4112.82,4124.1,4100.51,4075.9,4109.23,4096.92,4108.21,4085.13,4100.51,4136.92,4110.26,4113.85,4113.85,2041,2038,6.598,0,0,0,0,
58,4109.23,4106.67,4121.54,4090.77,4082.56,4111.28,4093.33,4091.28,4069.74,4085.13,4113.85,4096.41,4089.74,4101.54,2041,2038,6.606,0,0,0,0,
59,4108.21,4103.08,4123.59,4090.77,4086.67,4104.62,4084.62,4097.44,4077.95,4077.44,4112.82,4092.82,4091.28,4097.44,2042,2036,6.613,0,0,0,0,
60,4112.82,4111.79,4124.1,4096.41,4080.51,4104.1,4094.87,4118.97,4098.97,4089.74,4125.64,4103.08,4109.23,4105.13,2043,2036,6.621,0,0,0,0,
61,4125.13,4123.59,4130.77,4097.95,4098.97,4116.41,4112.31,4133.33,4109.23,4114.87,4133.85,4114.87,4115.38,4110.26,2046,2033,6.629,0,0,0,0,
62,4130.77,4127.18,4138.97,4093.33,4112.31,4117.44,4115.9,4138.97,4113.33,4105.13,4149.23,4124.62,4110.26,4120,2046,2032,6.638,0,0,0,0,
63,4124.1,4119.49,4139.49,4089.23,4093.85,4111.79,4111.79,4131.79,4106.15,4097.44,4146.67,4121.54,4100.51,4123.59,2047,2033,6.647,0,0,0,0,
64,4125.64,4116.41,4140,4094.36,4101.54,4118.46,4112.31,4121.03,4092.31,4133.33,4128.21,4110.77,4103.08,4112.31,2048,2035,6.653,0,0,0,0,
65,4126.15,4116.41,4134.36,4097.44,4114.87,4113.33,4108.21,4127.69,4093.33,4123.08,4125.13,4105.64,4112.31,4103.08,2048,2035,6.667,0,0,0,0,
66,4115.38,4114.87,4121.54,4094.87,4093.33,4091.79,4099.49,4137.95,4100,4084.62,4131.28,4104.1,4108.72,4103.59,2049,2038,6.669,0,0,0,0,
67,4110.26,4113.85,4121.03,4091.28,4076.92,4096.41,4101.03,4132.82,4093.85,4096.92,4121.54,4103.08,4094.36,4094.36,2050,2036,6.678,0,0,0,0,
68,4104.62,4098.97,4110.26,4082.56,4065.64,4106.15,4093.33,4120,4088.72,4095.9,4094.87,4090.77,4077.44,4072.31,2052,2034,6.685,0,0,0,0,
69,4091.28,4082.05,4089.74,4074.36,4044.1,4090.77,4073.85,4113.33,4092.82,4061.03,4089.74,4068.72,4073.33,4064.1,2052,2033,6.692,0,0,0,0,
70,4100.51,4094.36,4103.59,4085.64,4081.54,4087.18,4080,4124.1,4094.36,4074.36,4114.36,4077.95,4092.82,4080,2053,2031,6.701,0,0,0,0,
71,4115.9,4114.36,4126.15,4094.36,4110.26,4093.33,4095.9,4127.69,4089.74,4096.41,4122.05,4097.95,4094.87,4087.69,2054,2031,6.71,0,0,0,0,
72,4094.87,4093.33,4104.62,4077.44,4048.72,4081.54,4082.05,4104.1,4078.46,4075.38,4095.38,4074.36,4067.18,4060,2054,2028,6.716,0,0,0,0,
73,4085.13,4072.31,4087.18,4069.74,4050.26,4083.08,4073.85,4095.9,4077.95,4075.38,4090.26,4056.41,4073.85,4054.87,2055,2029,6.724,0,0,0,0,
74,4114.36,4095.9,4114.36,4090.77,4120.51,4100.51,4096.41,4114.36,4101.03,4100.51,4115.9,4087.18,4102.56,4091.79,2054,2030,6.732,0,0,0,0,
75,4119.49,4109.23,4130.26,4098.97,4098.97,4088.72,4093.33,4105.13,4103.59,4091.28,4109.74,4095.9,4091.28,4090.77,2054,2031,6.74,0,0,0,0,
76,4099.49,4094.36,4120,4085.64,4048.72,4070.26,4069.23,4075.9,4085.64,4077.44,4085.13,4069.74,4076.41,4069.74,2055,2034,6.756,0,0,0,0,
77,4106.67,4097.95,4118.46,4081.03,4070.26,4075.9,4069.74,4069.74,4089.23,4098.97,4090.77,4073.33,4096.92,4089.74,2055,2035,6.757,0,0,0,0,
78,4115.38,4112.31,4119.49,4083.08,4075.38,4081.03,4072.31,4064.62,4093.85,4090.77,4107.18,4088.72,4103.59,4102.05,2053,2035,6.763,0,0,0,0,
79,4104.62,4103.08,4109.74,4079.49,4037.95,4072.82,4060.51,4051.28,4077.44,4056.92,4105.13,4081.54,4085.13,4083.08,2053,2037,6.775,0,0,0,0,
80,4113.85,4098.46,4112.82,4084.62,4041.54,4074.87,4068.72,4066.15,4084.1,4084.62,4108.72,4080.51,4091.28,4089.74,2053,2038,6.782,0,0,0,0,
81,4134.36,4126.15,4129.23,4097.44,4108.72,4095.9,4097.44,4098.97,4117.44,4136.41,4126.67,4100.51,4115.38,4115.38,2053,2039,6.788,0,0,0,0,
82,4117.95,4126.67,4116.41,4092.31,4115.38,4108.72,4093.33,4082.05,4103.08,4110.26,4113.33,4090.26,4111.28,4099.49,2054,2037,6.796,0,0,0,0,
83,4096.92,4097.95,4098.46,4084.62,4046.67,4095.38,4070.77,4043.59,4067.69,4064.1,4091.79,4066.67,4095.9,4073.85,2056,2034,6.803,0,0,0,0,
84,4123.59,4115.38,4123.59,4101.03,4058.97,4080.51,4081.03,4065.64,4088.72,4094.87,4123.08,4096.41,4110.77,4097.44,2056,2033,6.811,0,0,0,0,
85,4145.13,4147.69,4145.13,4109.74,4129.23,4089.23,4098.97,4106.15,4115.9,4133.33,4148.72,4126.15,4129.23,4126.15,2055,2030,6.818,0,0,0,0,
86,4127.69,4134.36,4129.23,4093.33,4094.87,4096.92,4094.36,4116.41,4107.69,4122.56,4129.23,4101.54,4122.56,4116.92,2057,2031,6.826,0,0,0,0,
87,4117.95,4113.85,4114.87,4090.77,4038.46,4090.77,4084.62,4123.59,4103.59,4107.69,4123.59,4081.54,4116.92,4100,2056,2033,6.843,0,0,0,0,
88,4123.08,4121.03,4117.95,4103.08,4081.03,4091.28,4088.21,4122.56,4102.05,4107.69,4140.51,4096.41,4123.59,4091.28,2055,2034,6.844,0,0,0,0,
89,4129.23,4130.77,4121.03,4105.13,4107.18,4090.26,4098.97,4113.85,4095.9,4121.54,4139.49,4104.62,4122.05,4093.85,2055,2035,6.853,0,0,0,0,
90,4140,4135.38,4126.67,4099.49,4080,4085.13,4106.15,4124.1,4112.82,4135.9,4137.44,4104.1,4117.95,4114.36,2053,2036,6.858,0,0,0,0,
91,4135.9,4132.31,4122.56,4094.36,4081.54,4088.21,4100,4122.05,4116.41,4111.79,4138.46,4098.46,4116.92,4113.85,2051,2035,6.866,0,0,0,0,
92,4115.38,4121.54,4112.31,4091.28,4093.33,4094.36,4091.79,4100.51,4092.82,4084.1,4123.59,4085.64,4111.28,4087.18,2050,2036,6.873,0,0,0,0,
93,4112.82,4109.74,4110.77,4092.31,4061.03,4091.28,4089.74,4095.38,4089.74,4104.1,4113.85,4082.56,4103.59,4076.92,2050,2034,6.882,0,0,0,0,
94,4122.05,4105.13,4113.33,4092.82,4045.64,4089.23,4087.69,4098.46,4099.49,4117.44,4122.05,4089.23,4102.56,4087.18,2049,2036,6.89,0,0,0,0,
95,4127.69,4120,4122.05,4093.85,4085.13,4091.28,4097.95,4105.64,4105.13,4115.38,4134.87,4100,4115.9,4101.54,2047,2036,6.898,0,0,0,0,
96,4115.38,4111.28,4111.28,4087.18,4065.13,4086.67,4097.95,4093.33,4090.26,4076.41,4116.41,4087.69,4095.38,4083.59,2046,2036,6.906,0,0,0,0,
97,4098.97,4081.54,4089.74,4074.87,4035.38,4080.51,4083.59,4065.64,4068.72,4031.79,4091.79,4067.69,4061.03,4054.87,2047,2037,6.92,0,0,0,0,
98,4117.44,4103.08,4107.18,4083.59,4105.64,4081.03,4093.33,4083.08,4090.77,4100.51,4116.41,4086.67,4094.87,4085.13,2047,2037,6.922,0,0,0,0,
99,4132.82,4134.87,4124.1,4095.38,4134.87,4078.97,4102.05,4111.79,4120.51,4178.46,4138.97,4104.62,4134.87,4121.03,2046,2036,6.93,0,0,0,0,
100,4110.77,4108.72,4097.95,4082.56,4050.26,4075.38,4085.64,4091.79,4098.97,4115.38,4113.85,4079.49,4106.67,4091.28,2045,2036,6.938,0,0,0,0,
101,4101.54,4088.72,4087.69,4078.46,4031.28,4079.49,4081.54,4077.95,4080.51,4056.41,4103.08,4070.26,4076.92,4067.18,2045,2038,6.949,0,0,0,0,
102,4118.46,4110.77,4106.67,4091.79,4086.15,4077.95,4088.72,4095.9,4100.51,4096.41,4127.69,4093.85,4092.82,4084.62,2047,2038,6.961,0,0,0,0,
103,4120,4112.82,4105.64,4092.31,4074.36,4070.26,4082.56,4094.36,4101.54,4107.18,4130.26,4091.79,4100,4084.62,2045,2038,6.962,0,0,0,0,
104,4113.85,4103.59,4097.44,4087.69,4047.69,4070.26,4088.21,4086.15,4088.72,4099.49,4113.33,4077.95,4098.46,4074.87,2044,2038,6.969,0,0,0,0,
105,4113.85,4109.74,4097.44,4086.67,4056.92,4072.82,4100.51,4088.21,4094.36,4105.13,4107.69,4081.54,4098.46,4083.59,2044,2036,6.977,0,0,0,0,
106,4106.67,4102.56,4093.85,4077.44,4056.92,4077.44,4093.85,4074.36,4091.28,4071.79,4103.59,4079.49,4078.46,4080.51,2045,2036,6.985,0,0,0,0,
107,4102.05,4093.33,4093.33,4074.87,4052.82,4090.77,4086.67,4063.59,4077.44,4067.69,4101.03,4071.28,4072.31,4064.1,2046,2034,6.992,0,0,0,0,
108,4113.85,4111.79,4104.1,4092.31,4072.31,4095.9,4095.9,4081.03,4090.77,4115.9,4113.85,4082.56,4098.97,4071.28,2045,2034,7,0,0,0,0,
109,4124.62,4127.69,4108.21,4098.97,4083.08,4082.05,4101.03,4097.95,4111.79,4122.56,4131.28,4099.49,4113.85,4087.69,2045,2035,7.008,0,0,0,0,
110,4110.26,4108.72,4092.82,4082.05,4048.72,4072.82,4091.79,4082.05,4093.33,4073.33,4116.92,4084.62,4088.21,4072.31,2045,2036,7.015,0,0,0,0,
111,4104.1,4100,4090.26,4077.95,4039.49,4077.95,4089.74,4073.85,4080.51,4077.95,4102.05,4073.33,4078.46,4067.18,2046,2036,7.024,0,0,0,0,
112,4121.54,4117.95,4105.64,4094.36,4082.56,4088.21,4096.41,4087.69,4103.59,4122.05,4115.9,4084.62,4101.03,4090.26,2047,2036,7.031,0,0,0,0,
113,4117.95,4115.9,4103.59,4096.41,4090.77,4093.85,4093.85,4081.54,4108.21,4111.28,4118.97,4082.05,4102.56,4086.67,2046,2037,7.039,0,0,0,0,
114,4106.15,4105.64,4096.92,4084.62,4077.44,4094.36,4096.92,4071.28,4088.21,4092.82,4111.28,4075.9,4089.74,4072.31,2046,2039,7.05,0,0,0,0,
115,4123.08,4120,4110.26,4086.67,4091.28,4093.85,4108.72,4085.13,4094.87,4112.31,4118.97,4090.77,4097.44,4087.69,2045,2038,7.055,0,0,0,0,
116,4129.74,4122.05,4111.28,4095.38,4077.95,4089.23,4108.72,4095.9,4106.15,4110.77,4122.05,4093.33,4104.62,4093.33,2045,2040,7.069,0,0,0,0,
117,4120,4111.79,4104.1,4092.82,4062.05,4086.15,4104.1,4105.13,4103.59,4094.36,4119.49,4088.21,4103.59,4087.18,2045,2040,7.071,0,0,0,0,
118,4124.62,4120,4111.28,4090.77,4086.67,4092.82,4103.59,4125.13,4105.64,4106.67,4125.13,4095.38,4102.05,4093.33,2046,2040,7.078,0,0,0,0,
119,4123.59,4122.56,4107.69,4088.72,4070.77,4094.36,4096.41,4122.56,4101.03,4112.82,4112.31,4088.21,4092.31,4088.21,2046,2038,7.087,0,0,0,0,
120,4110.77,4105.13,4093.85,4083.59,4040,4084.1,4088.21,4110.26,4083.08,4100.51,4091.79,4072.31,4088.72,4069.74,2046,2038,7.094,0,0,0,0,
121,4110.77,4102.05,4096.92,4080.51,4068.72,4080,4086.15,4129.74,4088.21,4102.56,4106.15,4077.44,4098.46,4072.31,2045,2038,7.102,0,0,0,0,
122,4114.36,4110.26,4103.59,4081.54,4087.69,4091.28,4091.79,4150.26,4106.67,4120.51,4123.59,4086.15,4099.49,4083.08,2044,2040,7.112,0,0,0,0,
123,4111.28,4103.08,4095.38,4085.13,4062.05,4096.92,4097.44,4140.51,4095.9,4122.05,4112.82,4081.03,4092.82,4074.36,2041,2043,7.12,0,0,0,0,
124,4109.23,4098.46,4091.28,4087.18,4054.36,4079.49,4091.79,4137.44,4081.54,4102.56,4101.03,4077.44,4090.77,4069.23,2042,2043,7.128,0,0,0,0,
125,4117.95,4115.38,4104.62,4090.77,4082.56,4073.85,4094.87,4151.28,4094.87,4102.05,4109.23,4086.67,4093.85,4081.03,2041,2045,7.135,0,0,0,0,
126,4133.33,4126.67,4115.9,4094.36,4092.82,4089.74,4111.79,4150.77,4102.05,4112.82,4110.77,4092.82,4100,4089.23,2040,2044,7.142,0,0,0,0,
127,4130.26,4113.33,4106.67,4089.74,4057.95,4092.31,4105.64,4138.46,4086.67,4104.1,4095.38,4081.54,4097.95,4076.41,2039,2043,7.161,0,0,0,0,
128,4105.64,4100,4089.23,4077.44,4042.56,4085.64,4085.13,4131.28,4088.21,4101.03,4089.23,4064.1,4078.46,4059.49,2038,2042,7.166,0,0,0,0,
8,4110.26,4107.18,4089.74,4085.13,4065.64,4075.9,4092.31,4127.18,4109.74,4138.46,4103.59,4077.44,4090.77,4082.05,2042,2041,7.174,0,0,0,0,
9,4105.13,4116.41,4085.13,4082.05,4075.38,4085.13,4093.33,4118.97,4093.33,4126.67,4094.36,4068.21,4092.31,4072.31,2042,2040,7.201,0,0,0,0,
10,4104.1,4121.54,4090.26,4082.56,4072.31,4095.9,4104.62,4118.97,4088.21,4108.21,4094.87,4078.46,4093.33,4069.23,2044,2042,7.205,0,0,0,0,
11,4106.15,4116.92,4092.31,4085.64,4074.87,4088.72,4105.13,4118.97,4102.56,4117.95,4108.21,4085.64,4090.26,4077.44,2045,2040,7.212,0,0,0,0,
12,4113.85,4119.49,4094.87,4087.69,4095.9,4089.74,4103.59,4122.56,4109.74,4129.23,4117.44,4084.1,4099.49,4080,2042,2040,7.22,0,0,0,0,
13,4111.28,4125.64,4095.38,4083.59,4078.46,4094.36,4105.64,4126.15,4104.62,4131.28,4108.72,4079.49,4106.15,4075.9,2043,2040,7.229,0,0,0,0,
14,4103.59,4120.51,4091.28,4084.62,4069.23,4095.9,4104.62,4128.72,4105.64,4137.95,4097.44,4071.28,4097.44,4072.82,2043,2041,7.236,0,0,0,0,
15,4113.85,4123.08,4096.92,4093.33,4103.08,4100,4111.28,4141.54,4107.18,4130.77,4103.08,4076.92,4097.95,4079.49,2043,2042,7.244,0,0,0,0,
16,4126.15,4137.44,4106.67,4094.36,4097.44,4090.77,4125.64,4161.54,4108.72,4121.03,4118.97,4095.38,4109.23,4095.38,2043,2043,7.252,0,0,0,0,
17,4128.72,4140,4110.77,4090.77,4078.46,4079.49,4126.67,4176.41,4121.03,4141.03,4127.69,4106.67,4112.31,4108.21,2041,2043,7.26,0,0,0,0,
18,4125.13,4127.69,4108.21,4092.82,4098.46,4087.18,4120,4170.26,4120,4149.74,4116.92,4099.49,4107.18,4100,2043,2040,7.267,0,0,0,0,
19,4120,4117.44,4104.62,4091.79,4094.87,4094.87,4118.97,4154.36,4106.15,4133.33,4108.72,4088.21,4105.64,4087.18,2044,2043,7.275,0,0,0,0,
20,4121.03,4123.59,4107.69,4089.74,4081.54,4093.33,4120,4155.9,4108.21,4131.28,4122.56,4095.38,4109.23,4102.05,2044,2043,7.285,0,0,0,0,
21,4126.67,4130.26,4110.77,4090.77,4084.1,4088.21,4112.31,4159.49,4111.28,4138.97,4128.21,4102.56,4108.72,4113.85,2045,2043,7.292,0,0,0,0,
22,4121.54,4118.97,4106.67,4088.72,4056.41,4075.9,4102.05,4150.26,4102.56,4129.23,4110.26,4092.31,4097.95,4096.41,2043,2045,7.3,0,0,0,0,
23,4115.38,4112.82,4105.13,4089.74,4076.41,4072.82,4110.77,4160,4107.18,4130.26,4102.05,4086.67,4100,4086.15,2043,2045,7.309,0,0,0,0,
24,4124.1,4123.59,4110.77,4093.33,4124.1,4083.08,4123.08,4172.31,4115.9,4138.97,4111.79,4094.87,4109.74,4099.49,2042,2044,7.316,0,0,0,0,
25,4117.44,4115.9,4099.49,4087.69,4080.51,4080.51,4111.28,4148.72,4100,4123.08,4102.05,4083.59,4090.77,4091.28,2041,2042,7.324,0,0,0,0,
26,4106.67,4103.08,4089.74,4082.56,4057.44,4073.85,4102.56,4129.74,4089.74,4117.95,4087.18,4068.72,4075.9,4067.69,2041,2041,7.334,0,0,0,0,
27,4109.23,4110.26,4093.85,4082.56,4097.44,4071.79,4111.79,4134.87,4094.87,4121.54,4089.74,4071.28,4089.74,4066.67,2042,2040,7.338,0,0,0,0,
28,4098.97,4103.59,4081.03,4077.44,4078.97,4068.21,4104.1,4127.18,4088.72,4106.67,4084.62,4064.1,4088.72,4067.69,2042,2038,7.346,0,0,0,0,
29,4091.28,4089.74,4074.36,4076.92,4048.72,4066.15,4089.23,4120,4084.1,4106.67,4074.87,4058.97,4076.92,4062.56,2043,2035,7.354,0,0,0,0,
30,4107.18,4102.56,4090.26,4082.56,4065.13,4060,4091.79,4127.18,4092.82,4119.49,4079.49,4072.82,4086.15,4062.56,2044,2034,7.362,0,0,0,0,
31,4105.13,4111.79,4085.64,4077.44,4061.03,4050.26,4093.33,4121.54,4095.38,4111.79,4083.59,4069.74,4091.28,4062.05,2044,2036,7.37,0,0,0,0,
32,4087.18,4107.18,4071.79,4076.92,4057.95,4048.72,4091.79,4115.38,4091.79,4107.18,4086.67,4060,4090.26,4064.62,2043,2035,7.378,0,0,0,0,
33,4092.31,4108.21,4084.62,4084.1,4074.36,4055.9,4095.9,4121.54,4091.79,4115.9,4091.79,4069.74,4093.85,4077.44,2043,2036,7.386,0,0,0,0,
34,4093.85,4104.62,4092.31,4078.46,4061.54,4056.92,4092.82,4119.49,4088.72,4119.49,4085.13,4070.77,4083.59,4076.41,2044,2040,7.404,0,0,0,0,
35,4087.18,4102.56,4087.18,4072.31,4063.59,4058.46,4089.23,4120.51,4089.74,4109.74,4081.03,4064.62,4077.95,4058.97,2045,2038,7.405,0,0,0,0,
36,4094.87,4108.21,4089.23,4078.97,4072.31,4061.03,4100,4128.21,4092.82,4098.97,4083.59,4069.23,4081.03,4053.85,2046,2038,7.41,0,0,0,0,
37,4088.21,4097.44,4078.46,4075.38,4037.44,4049.23,4098.97,4118.46,4086.15,4102.05,4071.79,4059.49,4071.79,4051.28,2045,2036,7.418,0,0,0,0,
38,4072.31,4087.69,4068.72,4067.18,4036.92,4046.15,4088.21,4102.56,4083.59,4107.18,4060.51,4046.67,4070.77,4055.38,2046,2035,7.426,0,0,0,0,
39,4092.31,4105.64,4091.79,4080,4096.41,4062.05,4100,4107.18,4093.33,4103.59,4073.85,4064.1,4093.33,4075.9,2044,2036,7.438,0,0,0,0,
40,4108.72,4122.05,4107.18,4088.72,4099.49,4065.64,4107.69,4109.23,4092.82,4103.59,4080,4072.82,4098.97,4080,2045,2038,7.444,0,0,0,0,
41,4096.92,4120,4093.33,4079.49,4050.77,4048.72,4092.82,4098.97,4081.54,4110.26,4074.36,4061.54,4092.31,4068.21,2046,2038,7.45,0,0,0,0,
42,4102.05,4124.62,4094.87,4081.03,4046.67,4048.72,4092.31,4098.97,4082.56,4115.38,4083.59,4065.64,4094.87,4072.31,2044,2040,7.458,0,0,0,0,
43,4102.56,4120,4095.9,4086.15,4058.46,4060.51,4097.44,4091.28,4080.51,4100.51,4076.92,4063.08,4081.54,4067.69,2045,2040,7.466,0,0,0,0,
44,4078.46,4100,4075.9,4075.9,4065.64,4062.05,4089.74,4080,4068.72,4085.13,4053.33,4043.08,4066.67,4045.64,2044,2037,7.473,0,0,0,0,
45,4082.05,4103.59,4077.44,4073.33,4069.74,4054.87,4096.92,4098.46,4085.64,4101.54,4069.23,4054.36,4087.18,4062.05,2043,2035,7.481,0,0,0,0,
46,4098.97,4117.95,4093.85,4080.51,4050.77,4044.62,4111.79,4119.49,4107.18,4115.9,4099.49,4077.95,4101.54,4084.1,2045,2034,7.488,0,0,0,0,
47,4083.08,4106.15,4084.1,4074.87,4060.51,4056.92,4106.67,4107.69,4094.36,4105.64,4080,4062.56,4075.38,4061.54,2045,2035,7.498,0,0,0,0,
48,4077.95,4102.56,4074.36,4072.82,4081.54,4073.85,4104.62,4100.51,4086.67,4118.46,4060.51,4049.74,4070.26,4049.74,2045,2033,7.505,0,0,0,0,
49,4096.92,4118.97,4086.15,4078.97,4056.41,4059.49,4110.77,4117.44,4102.05,4142.05,4082.56,4070.77,4103.08,4072.82,2044,2033,7.512,0,0,0,0,
50,4100,4120.51,4092.31,4080,4062.05,4051.28,4110.26,4127.69,4104.1,4138.97,4093.85,4081.54,4115.9,4085.13,2044,2032,7.52,0,0,0,0,
51,4096.41,4113.85,4088.72,4080.51,4096.92,4075.9,4114.36,4122.56,4091.79,4121.54,4078.97,4068.72,4102.56,4075.9,2044,2034,7.528,0,0,0,0,
52,4097.44,4121.03,4090.77,4084.62,4073.85,4084.62,4125.13,4118.97,4094.36,4109.74,4078.97,4067.69,4095.38,4072.82,2044,2032,7.536,0,0,0,0,
53,4094.36,4118.46,4091.28,4084.1,4052.31,4059.49,4120,4124.1,4101.54,4121.03,4094.87,4075.38,4096.41,4079.49,2045,2033,7.544,0,0,0,0,
54,4089.74,4105.13,4086.15,4077.44,4072.31,4049.23,4104.62,4124.1,4097.95,4134.36,4090.77,4068.72,4090.77,4077.44,2044,2034,7.553,0,0,0,0,
55,4091.79,4104.62,4086.15,4073.33,4076.41,4061.54,4107.69,4125.13,4093.33,4119.49,4076.92,4061.03,4089.74,4066.67,2045,2034,7.559,0,0,0,0,
56,4092.31,4111.79,4091.28,4074.87,4058.97,4072.31,4114.87,4127.69,4096.92,4106.15,4081.03,4063.08,4090.26,4061.03,2042,2035,7.567,0,0,0,0,
57,4088.21,4110.26,4090.26,4074.87,4047.69,4074.36,4107.69,4115.38,4091.28,4111.79,4078.97,4059.49,4083.08,4059.49,2044,2035,7.575,0,0,0,0,
58,4088.72,4109.74,4090.26,4076.41,4065.13,4073.33,4110.26,4112.31,4082.56,4105.13,4066.67,4056.41,4084.62,4059.49,2045,2036,7.583,0,0,0,0,
59,4091.28,4109.23,4092.82,4078.97,4100,4077.44,4115.9,4122.05,4091.28,4101.54,4065.64,4061.54,4089.74,4066.15,2043,2036,7.591,0,0,0,0,
60,4091.28,4110.26,4090.26,4076.92,4100.51,4075.38,4102.05,4107.18,4093.85,4112.82,4072.31,4062.56,4086.15,4070.77,2044,2036,7.599,0,0,0,0,
61,4089.74,4117.95,4086.15,4072.31,4056.41,4059.49,4093.33,4089.74,4082.05,4108.72,4069.74,4056.41,4079.49,4063.59,2043,2034,7.606,0,0,0,0,
62,4091.79,4118.46,4088.72,4074.87,4041.54,4058.97,4106.15,4105.13,4078.46,4106.15,4071.28,4060.51,4088.21,4059.49,2042,2034,7.614,0,0,0,0,
63,4094.36,4112.82,4099.49,4080.51,4060,4075.38,4115.38,4125.13,4094.87,4121.54,4087.18,4075.9,4105.13,4072.82,2043,2033,7.622,0,0,0,0,
64,4093.85,4117.44,4104.62,4084.62,4074.36,4071.28,4111.79,4125.64,4111.79,4129.74,4091.79,4084.62,4106.67,4087.69,2042,2033,7.63,0,0,0,0,
65,4090.26,4122.56,4095.9,4081.54,4087.69,4057.44,4103.59,4112.31,4096.41,4114.36,4073.85,4070.26,4083.59,4080,2044,2033,7.639,0,0,0,0,
66,4089.74,4116.41,4092.82,4075.9,4080,4064.1,4103.08,4099.49,4074.36,4105.13,4067.18,4062.56,4075.38,4070.77,2044,2034,7.646,0,0,0,0,
67,4091.28,4112.31,4098.46,4075.9,4058.46,4073.33,4109.74,4103.59,4084.1,4107.18,4081.03,4073.33,4092.82,4076.41,2043,2035,7.654,0,0,0,0,
68,4088.72,4116.92,4094.36,4076.92,4048.72,4063.59,4104.62,4110.26,4096.41,4106.15,4080,4072.31,4094.36,4076.41,2043,2036,7.662,0,0,0,0,
69,4090.26,4122.56,4091.79,4077.95,4062.05,4058.97,4098.46,4107.18,4090.77,4111.28,4080,4065.13,4086.67,4074.87,2043,2035,7.669,0,0,0,0,
70,4093.85,4123.59,4096.41,4078.97,4072.82,4071.28,4103.59,4106.15,4088.72,4106.67,4088.72,4065.13,4088.21,4080,2045,2035,7.688,0,0,0,0,
71,4091.28,4120.51,4094.36,4077.95,4068.21,4080,4107.18,4108.72,4092.31,4105.13,4076.92,4066.15,4088.21,4080.51,2043,2034,7.694,0,0,0,0,
72,4091.79,4123.08,4097.44,4078.97,4064.62,4070.26,4104.62,4108.21,4090.77,4122.05,4067.18,4070.26,4085.64,4077.95,2044,2032,7.702,0,0,0,0,
73,4094.87,4120.51,4105.13,4082.05,4050.26,4054.36,4100,4096.92,4086.15,4120.51,4076.41,4075.9,4086.67,4076.92,2044,2032,7.71,0,0,0,0,
74,4092.82,4116.41,4106.15,4082.56,4056.41,4062.05,4103.08,4088.21,4077.95,4093.85,4079.49,4073.33,4087.69,4077.44,2046,2029,7.718,0,0,0,0,
75,4092.82,4123.08,4106.67,4085.13,4082.05,4072.31,4103.59,4092.31,4075.9,4089.74,4075.38,4073.33,4086.15,4082.56,2045,2029,7.726,0,0,0,0,
76,4092.31,4122.05,4100.51,4081.54,4069.23,4064.62,4091.79,4088.72,4072.82,4108.21,4072.82,4069.23,4081.03,4078.97,2045,2033,7.733,0,0,0,0,
77,4087.69,4113.33,4087.69,4075.38,4055.38,4067.69,4087.18,4075.9,4067.69,4111.79,4071.79,4060,4082.56,4070.26,2045,2034,7.741,0,0,0,0,
78,4090.26,4121.03,4088.72,4085.13,4085.13,4074.87,4097.44,4087.69,4073.85,4104.62,4086.67,4069.23,4095.38,4081.54,2046,2033,7.749,0,0,0,0,
79,4098.46,4131.79,4098.46,4094.36,4103.59,4063.59,4103.08,4110.26,4083.08,4106.67,4099.49,4083.59,4096.41,4091.79,2047,2034,7.757,0,0,0,0,
80,4089.23,4118.97,4092.31,4081.03,4061.03,4060,4102.56,4102.56,4080,4121.54,4084.1,4075.38,4089.23,4076.41,2046,2035,7.765,0,0,0,0,
81,4076.41,4107.18,4086.15,4071.28,4036.92,4072.31,4105.64,4085.13,4076.92,4128.21,4074.36,4065.13,4090.77,4066.15,2046,2035,7.777,0,0,0,0,
82,4084.1,4122.05,4098.46,4083.08,4073.33,4076.92,4112.82,4102.05,4085.64,4112.31,4087.69,4078.97,4094.36,4083.08,2045,2037,7.782,0,0,0,0,
83,4103.08,4139.49,4114.87,4097.44,4104.1,4082.56,4127.18,4131.79,4095.9,4113.85,4099.49,4095.9,4098.97,4100,2046,2037,7.79,0,0,0,0,
84,4098.46,4124.1,4105.64,4091.79,4093.33,4089.23,4123.08,4119.49,4087.18,4122.56,4088.21,4083.59,4094.87,4089.23,2046,2038,7.797,0,0,0,0,
85,4075.9,4097.44,4079.49,4072.82,4053.33,4081.03,4101.54,4093.33,4069.23,4100.51,4066.15,4056.92,4078.46,4065.64,2045,2037,7.808,0,0,0,0,
86,4085.64,4115.9,4087.18,4074.87,4054.87,4074.36,4111.28,4120,4088.72,4111.79,4080,4072.31,4088.72,4081.03,2045,2036,7.816,0,0,0,0,
87,4112.82,4147.18,4116.41,4095.9,4101.54,4078.46,4132.31,4148.21,4120,4153.85,4119.49,4109.23,4116.92,4120.51,2044,2036,7.821,0,0,0,0,
88,4101.03,4129.74,4109.74,4094.36,4107.18,4086.15,4116.41,4117.44,4098.46,4127.18,4106.67,4094.36,4101.03,4108.21,2043,2036,7.828,0,0,0,0,
89,4085.64,4105.64,4092.82,4078.97,4082.05,4087.69,4104.1,4092.31,4072.31,4091.28,4067.18,4064.62,4072.82,4080.51,2043,2035,7.84,0,0,0,0,
90,4105.13,4125.64,4104.62,4083.59,4080,4082.56,4120.51,4109.23,4090.77,4133.33,4083.59,4080.51,4091.28,4101.54,2044,2035,7.844,0,0,0,0,
91,4118.46,4149.74,4115.38,4095.9,4091.79,4076.92,4125.13,4121.03,4103.59,4153.85,4113.85,4096.92,4117.44,4121.03,2042,2035,7.853,0,0,0,0,
92,4103.08,4138.46,4103.08,4089.74,4065.13,4065.64,4106.15,4104.62,4087.18,4111.28,4102.56,4080.51,4109.74,4102.05,2041,2036,7.889,0,0,0,0,
93,4086.15,4116.92,4088.72,4074.87,4037.44,4065.13,4091.79,4078.46,4073.33,4090.77,4080,4062.56,4083.59,4081.03,2042,2036,7.892,0,0,0,0,
94,4092.31,4123.59,4095.38,4080.51,4073.85,4085.13,4100.51,4077.95,4079.49,4108.72,4083.08,4069.23,4080,4086.15,2041,2036,7.899,0,0,0,0,
95,4109.23,4143.08,4113.33,4096.92,4112.82,4087.69,4115.38,4087.69,4089.74,4127.18,4094.87,4084.1,4098.46,4104.62,2041,2036,7.907,0,0,0,0,
96,4101.03,4133.85,4105.64,4088.72,4095.9,4075.9,4104.62,4058.46,4081.03,4116.92,4087.69,4075.38,4098.97,4103.08,2042,2036,7.915,0,0,0,0,
97,4081.54,4116.41,4090.26,4075.38,4068.21,4076.92,4089.74,4026.15,4068.72,4098.46,4076.92,4058.97,4089.74,4082.56,2043,2035,7.923,0,0,0,0,
98,4087.69,4120,4096.41,4084.62,4077.95,4080,4106.67,4064.1,4080,4100.51,4086.67,4070.26,4094.87,4084.62,2043,2033,7.93,0,0,0,0,
99,4101.54,4128.21,4100.51,4095.9,4107.69,4089.23,4127.69,4123.59,4101.03,4115.38,4103.59,4088.21,4100.51,4105.64,2046,2036,7.954,0,0,0,0,
100,4096.92,4133.85,4093.33,4092.31,4119.49,4095.9,4124.62,4132.31,4106.67,4128.72,4099.49,4083.59,4098.46,4107.18,2045,2036,7.956,0,0,0,0,
101,4088.21,4132.82,4090.77,4085.64,4103.59,4080.51,4117.44,4111.28,4095.9,4142.05,4092.31,4074.36,4101.03,4092.82,2045,2033,7.963,0,0,0,0,
102,4088.72,4126.15,4092.31,4086.67,4079.49,4069.74,4124.1,4106.15,4095.38,4136.41,4098.97,4074.36,4105.64,4088.21,2045,2034,7.981,0,0,0,0,
103,4095.38,4127.69,4096.92,4088.72,4081.54,4086.15,4130.26,4107.18,4108.21,4113.85,4105.64,4078.97,4105.64,4093.85,2045,2035,7.985,0,0,0,0,
112,4097.44,4122.56,4102.56,4089.74,4104.1,4095.38,4117.95,4119.49,4095.9,4114.36,4094.87,4067.69,4092.31,4096.92,2046,2039,7.997,0,0,0,0,
113,4096.41,4122.05,4104.62,4094.36,4084.1,4087.69,4117.95,4125.64,4099.49,4120.51,4107.69,4073.33,4096.92,4096.41,2045,2038,8.001,0,0,0,0,
114,4094.87,4120,4107.18,4096.92,4093.33,4089.74,4120,4118.97,4104.62,4130.26,4109.23,4078.46,4097.95,4097.95,2045,2038,8.009,0,0,0,0,
115,4091.79,4114.36,4096.41,4092.82,4105.64,4094.36,4111.28,4105.13,4098.97,4112.31,4092.31,4070.77,4084.1,4092.31,2044,2039,8.021,0,0,0,0,
116,4094.87,4115.9,4096.41,4090.77,4080.51,4083.59,4114.87,4112.82,4097.95,4096.41,4094.36,4071.28,4088.72,4093.85,2044,2035,8.025,0,0,0,0,
117,4101.54,4126.15,4108.21,4092.31,4081.03,4068.72,4123.59,4129.23,4108.21,4115.38,4110.77,4078.97,4107.18,4103.59,2044,2036,8.034,0,0,0,0,
118,4090.26,4123.59,4098.46,4092.31,4109.23,4073.85,4113.85,4115.38,4106.67,4131.79,4099.49,4066.67,4097.95,4096.41,2043,2036,8.042,0,0,0,0,
119,4081.03,4114.87,4084.1,4091.79,4106.15,4089.23,4107.69,4100.51,4096.92,4123.08,4084.62,4053.33,4085.13,4080,2045,2032,8.049,0,0,0,0,
120,4091.28,4120.51,4089.74,4094.36,4101.54,4091.28,4120.51,4111.28,4103.08,4125.64,4092.82,4062.05,4092.31,4079.49,2045,2032,8.058,0,0,0,0,
121,4093.85,4124.1,4093.85,4093.33,4110.77,4081.54,4123.08,4111.28,4107.69,4125.13,4096.92,4070.26,4097.95,4089.23,2045,2031,8.066,0,0,0,0,
122,4087.18,4120,4089.23,4090.26,4094.36,4073.33,4110.77,4107.18,4102.05,4091.28,4090.26,4064.1,4094.87,4092.31,2046,2032,8.074,0,0,0,0,
123,4086.15,4115.9,4090.77,4089.23,4081.03,4074.36,4110.26,4112.82,4101.54,4083.08,4091.28,4060,4087.18,4088.21,2044,2032,8.083,0,0,0,0,
124,4083.08,4110.77,4090.77,4090.26,4104.1,4082.05,4118.46,4094.87,4098.97,4115.9,4091.28,4059.49,4079.49,4075.9,2044,2035,8.088,0,0,0,0,
125,4085.64,4109.23,4090.77,4092.31,4093.85,4078.46,4121.54,4065.13,4098.97,4128.72,4091.28,4062.56,4088.72,4074.36,2044,2036,8.1,0,0,0,0,
126,4093.33,4109.23,4092.31,4089.23,4061.03,4068.21,4118.46,4053.33,4101.03,4117.95,4096.41,4066.15,4095.9,4086.15,2044,2037,8.104,0,0,0,0,
127,4089.74,4108.72,4092.31,4090.77,4089.74,4075.9,4121.54,4051.28,4099.49,4109.23,4094.87,4067.18,4085.64,4084.62,2042,2036,8.112,0,0,0,0,
128,4080.51,4107.18,4086.15,4090.77,4118.46,4086.67,4128.21,4044.1,4087.69,4095.9,4084.1,4065.13,4081.54,4072.82,2044,2034,8.12,0,0,0,0,
0,4067.69,4093.85,4074.36,4076.92,4076.41,4076.41,4122.05,4036.92,4088.72,4084.1,4072.82,4052.31,4080,4063.59,2044,2036,8.131,0,0,0,0,
1,4061.03,4077.95,4076.92,4075.38,4056.92,4069.74,4117.95,4050.26,4107.18,4094.36,4070.77,4051.28,4072.82,4066.67,2046,2033,8.137,0,0,0,0,
2,4075.38,4096.41,4090.77,4091.79,4094.36,4078.97,4126.15,4066.15,4108.72,4114.36,4084.1,4067.69,4075.9,4082.05,2046,2033,8.143,0,0,0,0,
3,4087.69,4127.69,4096.92,4097.44,4101.03,4078.46,4129.74,4072.31,4096.92,4111.28,4095.9,4074.87,4087.69,4089.23,2046,2032,8.157,0,0,0,0,
4,4078.46,4126.15,4089.74,4089.23,4077.44,4074.87,4115.9,4092.31,4096.92,4089.74,4085.13,4057.95,4082.05,4071.28,2046,2031,8.163,0,0,0,0,
5,4071.28,4114.87,4083.08,4092.31,4081.54,4079.49,4109.74,4128.21,4109.74,4106.67,4073.85,4046.15,4074.36,4055.9,2045,2031,8.167,0,0,0,0,
6,4078.97,4124.1,4089.23,4101.54,4104.1,4081.03,4121.54,4155.9,4108.21,4147.18,4088.72,4057.44,4088.72,4066.15,2045,2033,8.176,0,0,0,0,
7,4081.54,4134.36,4097.44,4100.51,4104.1,4077.95,4125.13,4172.31,4096.92,4137.95,4097.44,4066.15,4095.9,4075.38,2046,2036,8.183,0,0,0,0,
8,4069.23,4123.59,4088.72,4093.33,4072.31,4072.31,4112.82,4176.92,4089.74,4088.72,4079.49,4051.79,4079.49,4065.13,2044,2037,8.19,0,0,0,0,
9,4056.41,4113.33,4072.31,4089.74,4059.49,4072.82,4104.1,4164.1,4076.92,4065.13,4063.59,4031.28,4062.05,4045.64,2044,2037,8.198,0,0,0,0,
10,4058.46,4117.44,4071.79,4091.28,4093.33,4081.03,4109.74,4169.23,4074.87,4086.67,4065.64,4032.31,4062.56,4037.95,2043,2036,8.232,0,0,0,0,
11,4067.69,4121.54,4080.51,4091.28,4113.33,4086.67,4120.51,4199.49,4090.26,4110.26,4073.33,4042.05,4073.85,4052.31,2043,2035,8.233,0,0,0,0,
12,4068.21,4117.95,4080,4090.26,4098.97,4085.64,4124.1,4204.62,4095.38,4105.64,4075.9,4040.51,4080,4061.03,2044,2037,8.239,0,0,0,0,
13,4066.67,4115.38,4075.9,4090.77,4079.49,4077.44,4119.49,4188.72,4089.23,4101.54,4077.44,4038.97,4079.49,4057.44,2043,2037,8.247,0,0,0,0,
14,4067.69,4115.38,4076.92,4091.28,4076.92,4073.33,4120.51,4182.05,4094.87,4110.26,4079.49,4049.23,4081.54,4057.95,2043,2035,8.255,0,0,0,0,
15,4057.44,4107.69,4072.82,4091.28,4095.38,4085.13,4123.08,4178.46,4095.38,4102.56,4071.28,4049.74,4075.38,4050.77,2043,2034,8.263,0,0,0,0,
16,4050.77,4101.03,4068.21,4090.26,4114.87,4095.38,4115.9,4170.77,4091.28,4091.28,4065.13,4038.97,4062.56,4045.64,2043,2036,8.268,0,0,0,0,
17,4067.18,4111.79,4080.51,4091.79,4111.79,4084.62,4114.36,4173.85,4102.05,4110.77,4080.51,4046.67,4073.85,4061.03,2044,2036,8.276,0,0,0,0,
18,4083.59,4126.67,4098.46,4095.9,4094.36,4071.79,4122.56,4178.46,4106.15,4124.1,4097.95,4067.69,4098.97,4074.36,2044,2034,8.285,0,0,0,0,
19,4075.9,4116.41,4093.85,4092.82,4079.49,4073.85,4121.03,4170.77,4094.87,4108.21,4091.28,4069.74,4093.85,4067.69,2043,2037,8.293,0,0,0,0,
20,4071.79,4098.97,4083.08,4084.1,4078.46,4079.49,4107.69,4161.03,4091.28,4100.51,4081.54,4061.54,4075.38,4067.18,2044,2037,8.301,0,0,0,0,
21,4088.21,4110.26,4091.28,4091.79,4100.51,4078.97,4105.13,4140,4094.87,4105.13,4088.72,4072.31,4085.64,4081.03,2044,2037,8.309,0,0,0,0,
22,4090.26,4123.08,4098.97,4103.59,4108.72,4080,4109.23,4112.82,4087.69,4091.79,4092.31,4078.97,4097.95,4086.67,2044,2037,8.317,0,0,0,0,
23,4076.41,4115.38,4089.74,4100.51,4100,4089.74,4108.21,4115.38,4089.74,4084.1,4086.67,4070.26,4083.59,4077.44,2044,2035,8.324,0,0,0,0,
24,4083.08,4120,4089.74,4099.49,4111.28,4093.33,4111.79,4142.56,4098.46,4110.26,4089.23,4070.77,4077.95,4075.9,2043,2034,8.333,0,0,0,0,
25,4100.51,4134.87,4105.64,4108.21,4116.41,4086.15,4123.08,4158.97,4099.49,4129.74,4097.44,4077.95,4091.79,4091.28,2043,2035,8.341,0,0,0,0,
26,4099.49,4128.21,4106.15,4109.23,4101.54,4085.64,4124.62,4151.28,4094.36,4118.46,4094.87,4074.36,4097.95,4097.44,2043,2035,8.35,0,0,0,0,
27,4092.82,4119.49,4096.41,4102.05,4090.77,4090.26,4119.49,4145.64,4094.87,4117.95,4088.72,4070.77,4089.23,4086.67,2045,2032,8.357,0,0,0,0,
28,4090.77,4127.69,4094.87,4103.59,4093.33,4092.31,4123.59,4163.59,4104.62,4135.9,4090.26,4076.92,4089.74,4082.56,2045,2034,8.364,0,0,0,0,
29,4088.21,4131.28,4094.36,4105.64,4102.05,4093.85,4125.64,4176.92,4108.21,4131.79,4094.87,4074.87,4102.56,4087.18,2043,2034,8.372,0,0,0,0,
30,4090.26,4124.1,4093.33,4098.97,4108.72,4089.74,4122.05,4166.67,4107.18,4117.44,4099.49,4072.31,4103.08,4096.41,2043,2035,8.386,0,0,0,0,
31,4090.26,4127.18,4092.82,4095.9,4109.23,4092.31,4119.49,4155.38,4105.13,4123.08,4100,4072.31,4086.15,4093.85,2043,2033,8.387,0,0,0,0,
32,4085.13,4134.87,4090.77,4103.59,4119.49,4105.13,4122.56,4156.41,4105.64,4137.95,4100.51,4068.72,4083.08,4078.46,2043,2037,8.394,0,0,0,0,
33,4089.74,4132.82,4092.82,4109.23,4115.38,4098.97,4123.59,4162.05,4110.77,4142.56,4114.87,4075.38,4101.03,4080,2044,2035,8.402,0,0,0,0,
34,4086.15,4118.97,4089.23,4098.46,4080,4085.64,4118.97,4156.41,4108.72,4127.18,4111.28,4076.92,4098.46,4090.77,2045,2036,8.41,0,0,0,0,
35,4071.79,4110.26,4078.97,4088.72,4092.82,4092.82,4118.97,4144.62,4100.51,4109.23,4085.64,4063.08,4081.03,4083.08,2045,2036,8.419,0,0,0,0,
36,4076.92,4119.49,4082.05,4093.33,4123.59,4096.41,4116.92,4140,4102.56,4122.56,4089.74,4060,4085.13,4075.9,2045,2036,8.43,0,0,0,0,
37,4086.15,4122.56,4089.23,4100.51,4100,4089.74,4112.31,4141.03,4109.23,4143.59,4104.62,4069.74,4091.79,4082.56,2044,2037,8.434,0,0,0,0,
38,4084.1,4114.36,4092.82,4103.08,4092.82,4090.26,4113.33,4144.62,4103.59,4126.15,4097.44,4071.28,4087.69,4086.15,2042,2038,8.442,0,0,0,0,
39,4090.26,4120.51,4104.1,4105.64,4126.15,4093.33,4124.1,4153.85,4103.08,4106.67,4098.97,4074.87,4095.38,4089.23,2043,2038,8.464,0,0,0,0,
40,4103.59,4130.77,4112.82,4109.23,4124.1,4092.31,4122.05,4158.46,4107.18,4125.64,4113.33,4081.54,4108.72,4101.03,2042,2038,8.466,0,0,0,0,
41,4108.21,4126.67,4109.74,4111.28,4083.08,4088.21,4106.67,4151.28,4097.95,4138.46,4107.18,4077.95,4106.67,4105.64,2041,2038,8.473,0,0,0,0,
42,4110.77,4130.26,4114.36,4112.31,4090.26,4091.79,4109.23,4151.79,4093.85,4127.69,4100.51,4080.51,4102.56,4101.54,2042,2040,8.482,0,0,0,0,
43,4112.31,4140.51,4121.03,4112.82,4127.18,4101.54,4121.03,4153.33,4107.18,4120.51,4112.82,4088.21,4107.69,4103.08,2042,2038,8.496,0,0,0,0,
44,4101.03,4127.18,4110.26,4108.21,4114.87,4093.85,4110.77,4137.95,4109.74,4111.28,4109.74,4078.97,4096.92,4101.54,2042,2039,8.498,0,0,0,0,
45,4089.74,4114.87,4094.87,4103.08,4080.51,4080.51,4096.92,4130.26,4092.82,4104.62,4093.33,4066.15,4072.82,4086.67,2041,2038,8.506,0,0,0,0,
46,4093.85,4126.67,4096.41,4106.15,4102.05,4093.85,4110.26,4146.67,4092.82,4119.49,4093.85,4067.69,4076.41,4081.03,2040,2038,8.515,0,0,0,0,
47,4107.69,4136.41,4107.69,4110.26,4146.67,4114.87,4127.18,4158.46,4109.23,4130.77,4113.85,4076.92,4104.62,4100.51,2039,2038,8.522,0,0,0,0,
48,4109.74,4127.18,4109.23,4108.21,4119.49,4107.69,4122.05,4144.1,4108.21,4117.95,4124.62,4083.08,4113.85,4110.26,2039,2038,8.53,0,0,0,0,
49,4105.13,4120,4105.64,4106.15,4090.26,4096.92,4117.44,4134.36,4101.03,4126.67,4117.44,4086.67,4102.56,4102.05,2039,2039,8.537,0,0,0,0,
50,4107.18,4125.64,4107.18,4108.21,4124.62,4102.05,4124.62,4140,4108.21,4147.18,4106.15,4089.23,4096.92,4097.44,2039,2038,8.545,0,0,0,0,
51,4106.67,4129.23,4107.69,4108.72,4150.26,4107.69,4126.67,4139.49,4109.23,4133.33,4096.92,4085.13,4094.36,4100,2039,2038,8.554,0,0,0,0,
52,4102.05,4125.64,4107.18,4106.15,4130.77,4107.18,4121.03,4133.85,4100,4115.9,4098.46,4077.95,4089.74,4105.13,2039,2037,8.561,0,0,0,0,
53,4104.1,4121.03,4108.72,4106.67,4110.26,4102.56,4117.95,4141.03,4101.54,4114.87,4107.69,4079.49,4092.31,4103.59,2039,2038,8.579,0,0,0,0,
54,4105.13,4122.56,4108.72,4107.18,4114.87,4098.97,4114.36,4147.18,4109.23,4109.23,4109.74,4084.62,4095.38,4098.46,2040,2039,8.584,0,0,0,0,
55,4100,4129.74,4105.13,4105.64,4107.69,4096.41,4112.31,4140,4105.64,4100,4106.15,4080,4097.44,4097.95,2039,2040,8.592,0,0,0,0,
56,4105.64,4133.85,4109.23,4112.82,4089.74,4095.38,4118.97,4145.13,4097.44,4111.28,4111.79,4079.49,4105.13,4108.21,2040,2038,8.6,0,0,0,0,
57,4116.92,4135.38,4116.92,4120,4112.31,4100,4129.23,4159.49,4106.67,4134.87,4121.54,4091.28,4107.18,4116.92,2042,2036,8.608,0,0,0,0,
58,4111.28,4131.79,4112.31,4113.33,4146.67,4112.31,4131.28,4149.74,4115.9,4131.79,4115.9,4091.28,4098.46,4111.28,2042,2038,8.616,0,0,0,0,
59,4103.59,4130.26,4105.13,4107.69,4122.56,4116.41,4126.15,4133.85,4105.64,4103.08,4108.21,4084.1,4095.9,4111.79,2043,2033,8.624,0,0,0,0,
60,4110.26,4136.92,4110.26,4113.85,4097.95,4109.23,4122.56,4139.49,4106.15,4107.69,4116.41,4089.23,4107.18,4120,2043,2033,8.632,0,0,0,0,
61,4111.28,4137.44,4111.28,4112.82,4132.31,4111.28,4123.08,4140.51,4122.56,4140.51,4124.1,4088.72,4108.21,4113.33,2042,2034,8.646,0,0,0,0,
62,4104.62,4132.82,4106.15,4106.15,4146.67,4111.79,4123.08,4134.87,4124.1,4141.54,4123.59,4082.05,4096.92,4102.05,2043,2034,8.652,0,0,0,0,
63,4106.15,4127.18,4106.67,4109.23,4105.64,4104.1,4121.54,4135.38,4110.77,4127.69,4122.56,4084.62,4097.95,4106.15,2043,2033,8.656,0,0,0,0,
64,4107.18,4121.03,4103.59,4106.67,4091.28,4103.59,4118.46,4127.18,4102.56,4114.87,4110.77,4079.49,4099.49,4107.69,2043,2034,8.671,0,0,0,0,
65,4106.67,4125.64,4105.13,4103.08,4128.72,4110.77,4120.51,4128.72,4111.79,4110.77,4113.33,4077.44,4100.51,4105.13,2042,2034,8.671,0,0,0,0,
66,4119.49,4141.54,4121.54,4113.85,4145.64,4111.79,4130.77,4146.15,4132.31,4131.79,4136.92,4097.44,4109.74,4121.03,2042,2036,8.679,0,0,0,0,
67,4124.1,4142.56,4125.13,4120,4124.1,4110.77,4129.74,4136.41,4130.26,4145.64,4133.85,4102.56,4102.56,4127.69,2041,2036,8.693,0,0,0,0,
68,4118.97,4135.9,4118.46,4117.95,4121.03,4109.74,4120,4120,4111.28,4125.13,4118.97,4091.28,4087.69,4115.9,2041,2036,8.694,0,0,0,0,
69,4123.08,4137.44,4123.08,4117.95,4114.36,4106.15,4123.59,4131.28,4104.1,4108.21,4125.13,4092.82,4095.9,4112.82,2042,2036,8.702,0,0,0,0,
70,4116.92,4123.59,4118.97,4113.85,4076.92,4109.74,4123.59,4116.92,4098.97,4107.69,4114.36,4088.21,4094.87,4106.15,2042,2036,8.711,0,0,0,0,
71,4106.15,4108.21,4111.28,4105.64,4104.1,4113.85,4115.9,4091.28,4093.85,4102.56,4102.56,4082.56,4082.05,4101.03,2043,2037,8.719,0,0,0,0,
72,4118.97,4125.64,4123.08,4110.77,4167.18,4111.28,4122.05,4098.97,4097.44,4107.18,4122.56,4095.9,4089.74,4116.92,2043,2036,8.727,0,0,0,0,
73,4127.18,4140.51,4127.69,4120.51,4131.28,4109.23,4125.13,4095.38,4095.9,4109.74,4124.62,4098.97,4092.82,4121.03,2043,2037,8.734,0,0,0,0,
74,4116.41,4124.62,4117.44,4118.97,4088.21,4108.21,4116.41,4075.38,4089.74,4103.59,4107.18,4088.72,4089.74,4106.15,2043,2039,8.742,0,0,0,0,
75,4121.54,4116.92,4122.05,4117.95,4132.82,4105.13,4118.97,4088.21,4096.41,4113.33,4118.46,4094.87,4106.67,4112.82,2045,2039,8.754,0,0,0,0,
76,4123.59,4125.13,4124.1,4118.46,4150.77,4107.18,4118.46,4107.18,4103.59,4121.54,4126.67,4098.97,4108.72,4116.41,2044,2040,8.758,0,0,0,0,
77,4108.72,4120.51,4109.23,4120.51,4116.92,4103.08,4107.69,4103.08,4105.13,4110.77,4113.33,4087.69,4090.26,4098.97,2045,2038,8.767,0,0,0,0,
78,4111.28,4117.95,4107.69,4120.51,4098.46,4090.26,4113.33,4107.18,4103.59,4087.69,4115.9,4087.18,4091.79,4100.51,2045,2038,8.775,0,0,0,0,
79,4112.31,4121.54,4110.77,4115.38,4089.74,4093.85,4119.49,4101.03,4092.31,4076.92,4119.49,4089.23,4087.69,4103.08,2046,2037,8.782,0,0,0,0,
80,4098.97,4110.77,4106.15,4116.41,4106.67,4103.08,4113.85,4090.77,4094.36,4097.95,4106.15,4084.62,4078.46,4093.33,2047,2036,8.789,0,0,0,0,
81,4109.23,4109.74,4108.21,4121.54,4136.41,4094.87,4115.9,4104.62,4106.67,4124.1,4104.62,4088.72,4094.36,4104.1,2048,2035,8.797,0,0,0,0,
82,4124.62,4125.13,4112.82,4122.05,4120,4087.18,4123.08,4113.33,4104.1,4112.31,4116.41,4094.87,4101.54,4112.82,2047,2036,8.805,0,0,0,0,
83,4114.87,4122.56,4109.74,4119.49,4106.15,4097.95,4123.08,4110.77,4102.56,4090.26,4120.51,4091.79,4090.77,4104.1,2049,2036,8.814,0,0,0,0,
84,4103.08,4109.23,4103.59,4116.92,4115.9,4097.44,4115.9,4109.74,4107.18,4106.67,4112.31,4084.1,4093.85,4103.08,2049,2036,8.828,0,0,0,0,
85,4098.46,4104.1,4093.33,4108.21,4089.23,4084.1,4106.15,4103.59,4096.41,4109.74,4096.41,4074.87,4087.69,4100,2048,2037,8.829,0,0,0,0,
86,4095.38,4102.05,4088.21,4103.08,4081.54,4083.08,4105.13,4097.95,4090.26,4083.08,4095.38,4073.85,4074.87,4092.31,2047,2039,8.837,0,0,0,0,
87,4103.59,4109.23,4100.51,4113.85,4124.62,4083.59,4112.31,4109.74,4109.74,4087.18,4115.38,4088.72,4093.33,4103.08,2047,2039,8.845,0,0,0,0,
88,4110.26,4124.1,4109.23,4120.51,4126.67,4080.51,4109.23,4112.82,4116.92,4108.72,4122.56,4092.82,4107.69,4111.79,2046,2039,8.853,0,0,0,0,
89,4101.54,4121.03,4102.05,4115.38,4090.26,4084.62,4104.62,4103.59,4103.08,4108.72,4114.87,4081.03,4094.36,4100,2046,2040,8.86,0,0,0,0,
90,4097.95,4109.74,4097.95,4107.18,4093.85,4092.82,4105.13,4105.13,4098.46,4104.1,4113.33,4080,4093.33,4096.92,2046,2040,8.875,0,0,0,0,
91,4102.05,4108.21,4098.46,4104.62,4110.77,4089.74,4099.49,4104.62,4102.56,4104.62,4109.23,4083.59,4094.36,4100,2045,2039,8.876,0,0,0,0,
92,4107.18,4113.85,4098.97,4113.85,4100.51,4078.46,4100.51,4105.64,4106.67,4100,4108.72,4087.18,4095.9,4103.59,2044,2039,8.884,0,0,0,0,
93,4110.26,4119.49,4105.13,4122.56,4101.54,4074.87,4107.69,4108.21,4104.62,4094.87,4120,4096.92,4114.36,4116.41,2045,2038,8.896,0,0,0,0,
94,4105.13,4114.87,4108.21,4114.36,4123.59,4076.41,4107.69,4100,4096.92,4098.97,4115.38,4098.46,4106.15,4116.41,2043,2037,8.9,0,0,0,0,
95,4096.92,4108.21,4104.1,4104.1,4121.54,4079.49,4103.59,4096.41,4096.92,4111.79,4103.59,4089.74,4077.44,4100,2043,2035,8.907,0,0,0,0,
96,4103.59,4116.41,4105.64,4110.77,4086.67,4085.64,4109.23,4107.18,4106.15,4126.67,4121.54,4096.92,4094.87,4105.13,2043,2040,8.916,0,0,0,0,
97,4120,4126.67,4112.82,4117.44,4075.38,4089.23,4108.72,4111.28,4112.31,4116.41,4140,4106.15,4123.59,4127.69,2043,2038,8.927,0,0,0,0,
98,4124.1,4125.13,4112.82,4116.41,4107.69,4084.62,4102.05,4106.15,4106.67,4097.44,4124.1,4099.49,4109.23,4129.23,2043,2040,8.93,0,0,0,0,
99,4117.44,4119.49,4108.21,4115.38,4113.85,4077.44,4103.59,4106.15,4090.77,4095.38,4105.13,4091.79,4094.36,4115.38,2043,2039,8.939,0,0,0,0,
100,4115.9,4120,4108.21,4115.9,4083.59,4076.41,4107.69,4110.77,4093.33,4098.97,4111.28,4095.9,4103.59,4121.03,2044,2039,8.948,0,0,0,0,
101,4117.95,4116.92,4105.64,4114.36,4080,4077.44,4105.13,4109.74,4103.59,4105.13,4119.49,4100,4104.62,4129.74,2043,2037,8.955,0,0,0,0,
102,4123.08,4117.95,4108.21,4111.28,4109.23,4079.49,4105.64,4106.15,4096.41,4107.69,4118.97,4102.05,4100,4130.77,2044,2037,8.963,0,0,0,0,
103,4127.18,4124.62,4119.49,4116.92,4110.26,4077.44,4109.23,4110.26,4094.87,4094.36,4122.05,4104.62,4106.15,4132.82,2045,2038,8.971,0,0,0,0,
104,4123.59,4116.41,4120,4125.13,4082.05,4073.33,4098.97,4108.21,4098.46,4081.54,4116.92,4098.97,4101.03,4125.13,2045,2036,8.979,0,0,0,0,
105,4121.03,4109.23,4105.13,4117.95,4098.97,4077.44,4092.82,4097.44,4088.21,4104.1,4106.15,4093.33,4094.36,4117.95,2046,2038,8.987,0,0,0,0,
106,4125.64,4121.54,4102.56,4108.21,4132.31,4082.56,4100.51,4103.59,4088.72,4118.97,4111.28,4094.87,4104.62,4126.15,2046,2036,8.993,0,0,0,0,
107,4123.08,4122.05,4108.72,4110.77,4105.64,4081.54,4103.08,4113.33,4097.44,4083.08,4111.28,4092.31,4104.1,4125.13,2045,2037,9.002,0,0,0,0,
108,4115.9,4106.67,4104.1,4109.74,4072.31,4076.92,4101.54,4106.15,4093.33,4069.74,4102.05,4086.15,4095.9,4111.28,2044,2037,9.009,0,0,0,0,
109,4119.49,4116.41,4105.64,4107.18,4103.59,4077.44,4104.1,4108.72,4102.56,4111.28,4113.33,4094.36,4104.1,4123.08,2045,2033,9.018,0,0,0,0,
110,4128.21,4129.23,4114.87,4111.28,4134.36,4087.18,4110.26,4121.54,4115.9,4137.44,4130.77,4107.18,4113.85,4140.51,2044,2036,9.026,0,0,0,0,
111,4126.67,4116.41,4110.77,4109.74,4105.13,4095.9,4113.85,4114.36,4104.1,4108.21,4124.62,4103.59,4109.23,4131.79,2044,2036,9.035,0,0,0,0,
112,4121.54,4111.28,4104.62,4110.26,4081.54,4090.77,4112.82,4103.59,4098.97,4079.49,4116.92,4100.51,4101.54,4121.54,2043,2036,9.042,0,0,0,0,
113,4124.1,4117.95,4109.23,4116.41,4097.44,4081.03,4106.15,4106.15,4107.18,4097.95,4122.56,4105.13,4100,4123.08,2043,2037,9.05,0,0,0,0,
114,4122.56,4114.36,4108.21,4113.33,4113.33,4077.95,4103.59,4106.67,4107.69,4121.54,4122.56,4103.59,4106.15,4130.26,2043,2034,9.058,0,0,0,0,
115,4111.79,4107.69,4097.95,4106.67,4112.31,4080,4104.1,4098.46,4103.08,4103.08,4116.92,4094.36,4105.64,4125.64,2043,2035,9.066,0,0,0,0,
116,4110.26,4110.26,4096.92,4108.21,4098.97,4082.05,4102.56,4088.72,4101.03,4081.54,4114.36,4086.67,4095.38,4114.36,2044,2033,9.074,0,0,0,0,
117,4124.62,4123.08,4110.77,4113.85,4086.67,4084.1,4105.64,4097.44,4106.67,4106.15,4126.15,4097.44,4111.79,4128.21,2045,2033,9.081,0,0,0,0,
118,4126.67,4129.74,4114.87,4113.85,4093.33,4087.69,4106.15,4104.62,4108.21,4114.87,4137.44,4110.77,4126.67,4146.67,2044,2034,9.088,0,0,0,0,
119,4119.49,4121.54,4104.1,4108.21,4117.44,4091.28,4103.59,4093.33,4105.64,4106.15,4127.18,4102.56,4109.74,4135.38,2045,2034,9.097,0,0,0,0,
120,4123.08,4122.56,4102.56,4109.23,4128.21,4091.79,4105.64,4095.9,4110.26,4122.56,4120.51,4094.87,4107.69,4129.23,2044,2036,9.104,0,0,0,0,
121,4127.69,4134.36,4109.74,4113.33,4115.38,4091.28,4108.72,4107.69,4109.23,4116.41,4125.13,4107.69,4121.54,4138.97,2044,2036,9.112,0,0,0,0,
122,4125.13,4130.26,4110.77,4111.79,4096.41,4089.23,4107.18,4103.08,4103.59,4092.31,4125.13,4110.26,4118.46,4132.82,2044,2036,9.119,0,0,0,0,
123,4118.97,4120,4104.1,4108.72,4080,4087.18,4103.59,4101.03,4106.67,4090.77,4122.56,4095.9,4105.64,4126.15,2044,2034,9.134,0,0,0,0,
124,4114.87,4122.05,4100,4109.23,4089.74,4090.77,4104.1,4111.79,4109.23,4108.72,4125.13,4089.23,4098.97,4130.77,2044,2035,9.136,0,0,0,0,
125,4115.9,4127.69,4099.49,4108.21,4116.92,4095.9,4107.69,4109.23,4107.69,4116.92,4120.51,4091.79,4101.03,4127.18,2044,2033,9.149,0,0,0,0,
126,4113.33,4120.51,4092.31,4105.64,4103.59,4093.33,4101.54,4095.9,4107.18,4102.05,4112.31,4088.21,4106.67,4119.49,2043,2032,9.152,0,0,0,0,
127,4112.31,4118.97,4092.82,4108.21,4081.54,4089.74,4089.23,4093.85,4105.64,4095.38,4121.03,4087.69,4105.13,4127.18,2044,2033,9.159,0,0,0,0,
128,4122.56,4131.79,4107.18,4112.31,4120.51,4090.26,4095.38,4098.46,4108.21,4125.64,4130.77,4100.51,4106.67,4138.46,2044,2033,9.167,0,0,0,0,
0,4125.64,4138.46,4111.79,4110.77,4154.87,4093.33,4104.62,4101.54,4109.74,4135.9,4126.67,4104.62,4116.41,4135.38,2044,2035,9.175,0,0,0,0,
1,4112.82,4124.62,4103.08,4106.15,4116.41,4092.31,4095.9,4094.87,4100.51,4096.92,4117.44,4092.31,4108.21,4124.1,2044,2036,9.183,0,0,0,0,
2,4108.72,4115.38,4104.62,4106.15,4081.54,4089.23,4093.85,4095.38,4098.97,4089.23,4118.46,4087.69,4098.97,4120,2043,2036,9.19,0,0,0,0,
3,4112.31,4123.08,4109.74,4107.18,4091.28,4089.23,4104.62,4116.41,4111.28,4118.97,4125.64,4094.87,4106.67,4125.64,2044,2038,9.199,0,0,0,0,
4,4112.82,4120,4101.54,4105.13,4091.28,4092.31,4100,4123.59,4110.77,4110.77,4123.59,4093.85,4100.51,4123.08,2043,2038,9.207,0,0,0,0,
5,4114.87,4110.26,4095.9,4105.13,4096.41,4095.38,4088.21,4107.69,4102.56,4086.15,4120,4093.33,4087.69,4124.62,2043,2039,9.215,0,0,0,0,
6,4119.49,4119.49,4108.21,4109.74,4127.18,4090.77,4092.82,4108.72,4112.31,4112.31,4127.18,4106.15,4106.15,4142.56,2043,2041,9.223,0,0,0,0,
7,4123.08,4136.92,4123.08,4117.44,4122.56,4086.67,4098.97,4120.51,4124.62,4147.69,4138.97,4114.36,4127.18,4151.28,2043,2040,9.231,0,0,0,0,
8,4126.15,4138.97,4116.92,4120.51,4106.15,4099.49,4095.9,4110.77,4115.38,4127.18,4137.95,4111.28,4122.56,4140,2043,2040,9.239,0,0,0,0,
9,4133.33,4134.36,4110.26,4117.44,4115.9,4107.69,4093.85,4098.97,4106.15,4102.05,4139.49,4108.72,4118.97,4139.49,2042,2038,9.246,0,0,0,0,
10,4139.49,4138.97,4120.51,4118.97,4099.49,4091.28,4098.97,4110.26,4115.9,4117.95,4147.69,4116.92,4120,4151.79,2042,2037,9.255,0,0,0,0,
11,4140.51,4143.08,4128.72,4125.13,4094.36,4090.77,4106.67,4121.54,4125.64,4142.56,4148.21,4123.59,4121.54,4159.49,2041,2037,9.262,0,0,0,0,
12,4140,4142.56,4119.49,4123.08,4140.51,4111.79,4106.67,4111.79,4119.49,4135.9,4142.05,4115.9,4126.15,4155.38,2041,2039,9.27,0,0,0,0,
13,4132.31,4131.79,4107.18,4112.82,4148.21,4108.21,4102.56,4093.33,4106.67,4108.21,4130.26,4104.62,4113.85,4135.38,2041,2039,9.282,0,0,0,0,
14,4120.51,4118.46,4108.72,4106.67,4111.28,4089.23,4107.69,4096.41,4108.21,4105.13,4116.92,4104.1,4093.85,4124.62,2042,2037,9.286,0,0,0,0,
15,4127.69,4124.62,4121.54,4108.21,4105.13,4088.21,4110.77,4106.67,4121.54,4129.74,4121.03,4111.79,4102.05,4137.44,2044,2039,9.294,0,0,0,0,
16,4140.51,4140,4125.13,4112.82,4105.13,4090.26,4098.46,4091.28,4114.87,4125.64,4126.15,4110.77,4111.28,4144.1,2043,2041,9.301,0,0,0,0,
17,4138.97,4141.03,4119.49,4110.77,4099.49,4089.23,4093.33,4079.49,4094.87,4099.49,4120.51,4106.15,4098.46,4140.51,2044,2040,9.309,0,0,0,0,
18,4138.97,4132.82,4125.13,4109.23,4094.36,4090.26,4107.69,4092.31,4094.87,4095.38,4122.05,4108.21,4092.31,4141.54,2044,2039,9.316,0,0,0,0,
19,4132.31,4119.49,4121.03,4106.67,4087.18,4091.28,4109.74,4091.79,4100.51,4088.21,4115.9,4105.64,4088.72,4136.41,2042,2038,9.325,0,0,0,0,
20,4118.97,4112.31,4109.74,4104.62,4111.79,4091.28,4095.38,4088.21,4104.62,4091.79,4114.36,4102.56,4084.62,4133.33,2042,2036,9.339,0,0,0,0,
21,4128.72,4127.18,4118.46,4115.38,4118.97,4089.74,4094.87,4105.64,4115.38,4113.85,4133.85,4113.33,4098.46,4143.08,2042,2037,9.341,0,0,0,0,
22,4143.59,4137.44,4124.62,4120.51,4091.28,4090.77,4098.46,4108.72,4107.18,4111.79,4135.9,4117.95,4106.67,4142.56,2043,2037,9.348,0,0,0,0,
23,4137.95,4135.38,4119.49,4110.77,4106.15,4093.85,4098.97,4094.36,4096.41,4108.21,4121.03,4109.23,4101.03,4141.03,2041,2037,9.362,0,0,0,0,
24,4134.36,4136.41,4117.95,4107.18,4119.49,4089.23,4105.64,4097.44,4105.13,4114.36,4124.62,4107.69,4105.13,4146.67,2041,2038,9.364,0,0,0,0,
25,4137.95,4137.44,4117.95,4111.79,4107.69,4094.87,4111.79,4108.72,4110.26,4111.79,4131.28,4109.74,4109.74,4143.08,2040,2038,9.372,0,0,0,0,
26,4137.44,4136.41,4113.85,4110.77,4133.33,4108.72,4112.31,4105.13,4107.69,4114.87,4126.67,4110.26,4110.77,4140,2041,2036,9.384,0,0,0,0,
27,4129.23,4129.23,4107.69,4106.15,4116.92,4097.44,4108.21,4093.33,4103.59,4116.92,4121.03,4106.67,4107.18,4141.03,2042,2035,9.389,0,0,0,0,
28,4115.38,4115.9,4098.97,4103.59,4064.1,4084.62,4101.03,4088.72,4098.46,4088.72,4114.87,4096.41,4092.31,4132.31,2042,2034,9.397,0,0,0,0,
29,4121.03,4127.18,4104.62,4109.23,4111.28,4104.62,4103.08,4100.51,4101.03,4089.23,4125.13,4102.56,4096.41,4131.79,2042,2035,9.403,0,0,0,0,
30,4142.56,4151.28,4123.59,4122.05,4161.54,4117.44,4114.36,4110.77,4110.26,4126.15,4140.51,4122.56,4115.9,4147.18,2041,2035,9.412,0,0,0,0,
31,4144.62,4147.69,4123.59,4121.54,4120.51,4097.95,4107.18,4100,4109.74,4119.49,4138.97,4120.51,4112.31,4149.74,2042,2036,9.421,0,0,0,0,
32,4131.28,4135.38,4112.31,4111.79,4092.31,4090.26,4093.33,4083.08,4104.1,4106.67,4129.23,4103.59,4097.44,4138.46,2043,2035,9.427,0,0,0,0,
33,4122.05,4127.69,4106.15,4106.15,4102.56,4098.46,4089.23,4073.33,4091.79,4107.69,4111.28,4094.36,4093.85,4121.03,2042,2035,9.435,0,0,0,0,
34,4116.92,4120,4102.56,4107.18,4105.13,4093.33,4085.64,4068.21,4082.05,4087.18,4104.1,4097.44,4094.36,4112.82,2042,2038,9.444,0,0,0,0,
35,4121.03,4129.23,4108.72,4114.87,4108.21,4085.64,4090.26,4076.92,4096.41,4096.92,4132.31,4110.77,4107.69,4127.69,2040,2039,9.45,0,0,0,0,
36,4128.21,4142.56,4122.05,4123.59,4109.74,4088.72,4095.9,4094.36,4109.74,4129.74,4145.64,4113.33,4117.95,4141.03,2041,2041,9.458,0,0,0,0,
37,4128.21,4139.49,4123.59,4122.05,4107.18,4094.87,4097.44,4107.18,4105.13,4113.85,4121.54,4102.56,4108.21,4138.46,2040,2040,9.466,0,0,0,0,
38,4124.1,4134.36,4110.26,4113.85,4103.08,4097.44,4102.05,4110.26,4104.1,4087.69,4119.49,4102.05,4103.59,4130.77,2042,2039,9.475,0,0,0,0,
39,4122.05,4137.95,4107.69,4114.36,4112.31,4098.97,4103.59,4103.08,4109.74,4114.36,4142.56,4108.72,4108.72,4128.72,2042,2039,9.484,0,0,0,0,
40,4131.28,4144.62,4118.97,4120.51,4142.05,4102.05,4098.46,4095.38,4108.21,4138.97,4143.08,4108.21,4113.85,4134.87,2043,2040,9.494,0,0,0,0,
41,4144.1,4149.74,4125.64,4125.13,4144.1,4105.64,4105.13,4101.54,4114.87,4132.82,4131.28,4110.26,4123.59,4142.05,2042,2041,9.499,0,0,0,0,
42,4137.44,4143.59,4122.56,4124.62,4114.87,4101.03,4112.31,4107.18,4123.59,4124.62,4131.28,4115.9,4125.64,4142.05,2041,2037,9.517,0,0,0,0,
43,4123.59,4132.31,4117.44,4117.95,4100.51,4090.77,4099.49,4100.51,4113.85,4110.77,4129.74,4110.26,4113.33,4138.97,2042,2037,9.52,0,0,0,0,
43,4123.59,4132.31,4117.44,4117.95,4100.51,4090.77,4099.49,4100.51,4113.85,4110.77,4129.74,4110.26,4113.33,4138.97,2042,2037,9.525,0,0,0,0,
44,4121.03,4127.69,4108.72,4106.67,4114.36,4089.23,4088.21,4092.82,4104.62,4101.03,4120.51,4097.44,4101.54,4126.67,2042,2037,9.533,0,0,0,0,
45,4121.03,4124.62,4100.51,4107.18,4122.05,4090.77,4090.26,4090.26,4105.13,4106.15,4114.36,4091.28,4095.38,4113.33,2042,2038,9.539,0,0,0,0,
46,4121.03,4128.72,4108.72,4121.03,4113.85,4090.77,4100,4093.33,4103.59,4115.9,4121.03,4098.46,4098.97,4126.67,2042,2039,9.547,0,0,0,0,
47,4127.69,4138.46,4121.54,4127.69,4115.9,4086.15,4106.15,4101.03,4110.26,4123.08,4133.85,4110.26,4112.82,4142.56,2041,2039,9.562,0,0,0,0,
48,4125.13,4135.9,4115.38,4121.03,4130.77,4078.97,4101.03,4092.82,4116.41,4121.03,4127.69,4105.64,4116.41,4127.69,2043,2037,9.569,0,0,0,0,
49,4108.72,4123.59,4103.59,4113.33,4114.36,4075.9,4095.38,4068.72,4100,4101.54,4104.1,4089.23,4102.05,4106.67,2042,2037,9.576,0,0,0,0,
50,4100.51,4119.49,4103.59,4114.36,4076.41,4071.79,4093.85,4065.13,4087.18,4074.36,4096.41,4084.1,4089.74,4110.77,2042,2037,9.589,0,0,0,0,
51,4104.1,4122.05,4107.18,4114.87,4107.18,4077.44,4098.46,4077.44,4092.82,4080,4106.15,4090.26,4088.72,4117.44,2040,2036,9.593,0,0,0,0,
52,4107.69,4124.1,4105.13,4106.67,4150.77,4094.36,4097.95,4073.33,4094.87,4107.18,4108.21,4089.23,4088.72,4105.64,2041,2038,9.604,0,0,0,0,
53,4109.74,4130.26,4106.67,4109.23,4107.18,4085.13,4090.77,4068.21,4096.41,4095.9,4113.85,4088.21,4096.92,4104.62,2040,2039,9.608,0,0,0,0,
54,4110.77,4129.23,4111.79,4121.03,4074.36,4069.23,4093.85,4075.9,4106.15,4081.03,4125.13,4096.41,4104.1,4121.54,2040,2041,9.616,0,0,0,0,
55,4114.36,4127.18,4117.44,4123.08,4119.49,4077.95,4103.59,4077.44,4113.33,4111.79,4126.15,4103.59,4104.1,4126.67,2039,2042,9.624,0,0,0,0,
56,4122.56,4139.49,4118.97,4120,4143.59,4078.46,4099.49,4071.28,4107.69,4130.26,4125.64,4105.64,4112.82,4125.13,2038,2042,9.632,0,0,0,0,
57,4116.92,4138.46,4109.74,4116.41,4105.13,4066.67,4089.74,4068.21,4096.92,4105.64,4118.97,4097.95,4105.64,4122.05,2037,2043,9.639,0,0,0,0,
58,4103.08,4120,4105.64,4110.26,4086.67,4073.33,4089.23,4067.69,4093.85,4083.59,4107.18,4089.23,4084.62,4112.82,2035,2045,9.655,0,0,0,0,
59,4111.79,4126.67,4117.44,4118.46,4095.38,4077.44,4092.31,4070.26,4096.92,4082.56,4115.9,4097.44,4094.87,4124.1,2037,2046,9.656,0,0,0,0,
59,4111.79,4126.67,4117.44,4118.46,4095.38,4077.44,4092.31,4070.26,4096.92,4082.56,4115.9,4097.44,4094.87,4124.1,2037,2046,9.674,0,0,0,0,
60,4130.26,4147.69,4126.67,4126.15,4089.74,4071.28,4094.36,4074.36,4095.9,4087.18,4130.77,4107.18,4120,4140.51,2036,2043,9.68,0,0,0,0,
69,4106.15,4120.51,4110.26,4077.44,4089.23,4086.67,4096.41,4090.77,4086.15,4083.08,4104.1,4096.41,4088.72,4109.23,2033,2041,9.69,0,0,0,0,
70,4106.67,4118.97,4108.72,4078.97,4104.1,4088.72,4105.64,4091.79,4096.41,4087.18,4104.62,4099.49,4099.49,4112.31,2033,2040,9.696,0,0,0,0,
71,4112.82,4130.26,4126.67,4083.08,4116.92,4076.41,4111.79,4104.62,4115.9,4105.13,4124.62,4112.82,4111.28,4127.69,2035,2040,9.703,0,0,0,0,
72,4107.69,4127.18,4123.08,4083.08,4098.46,4077.95,4103.59,4104.62,4110.77,4094.87,4124.62,4108.72,4095.38,4123.08,2035,2040,9.711,0,0,0,0,
